id(T),xyz(T),ID_LeftLane(L),ID_RightLane(L),lateral_id(L),direction(L),speed_min_limit(L),speed_max_limit(L)
0,429817.082 4414854.633 59.781 429816.297 4414850.729 59.851 429815.517 4414846.793 59.903 429814.738 4414842.864 59.925 429813.923 4414838.955 59.946 429813.354 4414836.142 59.978 429812.585 4414832.209 59.982 429811.812 4414828.287 59.989 429811.006 4414824.369 60.004 429810.219 4414820.446 60.013 429809.505 4414816.848 60.013 429808.718 4414812.933 60.031 429807.937 4414809.007 60.043 429807.139 4414805.087 60.073 429806.336 4414801.164 60.073 429805.593 4414797.545 60.082 429804.800 4414793.619 60.086 429804.021 4414789.694 60.011 429803.239 4414785.771 59.985 429802.440 4414781.852 59.950 429801.635 4414777.938 59.855 429800.837 4414774.022 59.820 429800.040 4414770.098 59.772 429799.251 4414766.173 59.660 429798.457 4414762.256 59.531 429797.658 4414758.337 59.531 429796.865 4414754.413 59.450 429796.068 4414750.501 59.444 429795.283 4414746.579 59.526 429794.500 4414742.656 59.526 429793.707 4414738.735 59.532 429792.905 4414734.817 59.553 429792.111 4414730.896 59.553 429791.320 4414726.975 59.567 429790.530 4414723.054 59.567 429789.747 4414719.144 59.594 429788.972 4414715.221 59.615 429788.177 4414711.284 59.629 429787.367 4414707.367 59.639 429786.594 4414703.452 59.641 429785.826 4414699.595 59.641 429785.053 4414695.671 59.653 429784.257 4414691.745 59.662 429783.465 4414687.834 59.669 429782.667 4414683.907 59.677 429781.882 4414679.985 59.682 429781.077 4414676.066 59.689 429780.291 4414672.148 59.694 429779.491 4414668.228 59.705 429778.698 4414664.308 59.710 429777.909 4414660.387 59.713 429777.121 4414656.465 59.713 429776.336 4414652.544 59.716 429775.541 4414648.623 59.685 429774.745 4414644.703 59.685 429773.953 4414640.783 59.682 429773.161 4414636.862 59.682 429772.365 4414632.942 59.672 429771.572 4414629.021 59.658 429770.784 4414625.099 59.658 429769.996 4414621.178 59.668 429769.208 4414617.256 59.660 429768.417 4414613.335 59.663 429767.636 4414609.410 59.662 429766.880 4414605.482 59.662,,0,0,0,0,0
1,429820.661 4414853.913 59.816 429819.862 4414850.048 59.886 429818.946 4414846.111 59.898 429818.137 4414842.178 59.916 429817.337 4414838.279 59.964 429816.768 4414835.469 60.019 429816.000 4414831.523 60.029 429815.225 4414827.606 60.040 429814.421 4414823.688 60.047 429813.633 4414819.762 60.063 429812.913 4414816.155 60.087 429812.124 4414812.253 60.097 429811.337 4414808.322 60.094 429810.541 4414804.402 60.115 429809.736 4414800.470 60.133 429808.999 4414796.865 60.141 429808.200 4414792.929 60.132 429807.412 4414789.004 60.090 429806.634 4414785.078 60.002 429805.837 4414781.159 59.968 429805.038 4414777.251 59.901 429804.241 4414773.342 59.840 429803.441 4414769.410 59.840 429802.649 4414765.476 59.674 429801.860 4414761.562 59.594 429801.069 4414757.642 59.546 429800.274 4414753.711 59.499 429799.484 4414749.811 59.490 429798.700 4414745.889 59.612 429797.920 4414741.965 59.612 429797.131 4414738.044 59.618 429796.332 4414734.125 59.638 429795.542 4414730.204 59.638 429794.754 4414726.282 59.653 429793.967 4414722.360 59.653 429793.192 4414718.473 59.680 429792.410 4414714.553 59.680 429791.595 4414710.586 59.686 429790.784 4414706.669 59.686 429790.027 4414702.773 59.688 429789.269 4414698.900 59.688 429788.499 4414694.975 59.698 429787.685 4414691.041 59.713 429786.884 4414687.151 59.716 429786.080 4414683.210 59.719 429785.298 4414679.287 59.733 429784.525 4414675.363 59.739 429783.764 4414671.445 59.755 429782.967 4414667.526 59.759 429782.172 4414663.606 59.764 429781.385 4414659.684 59.770 429780.601 4414655.761 59.770 429779.812 4414651.842 59.773 429779.004 4414647.925 59.769 429778.194 4414644.008 59.763 429777.405 4414640.086 59.760 429776.617 4414636.165 59.760 429775.813 4414632.246 59.746 429775.022 4414628.325 59.724 429774.244 4414624.402 59.724 429773.467 4414620.478 59.734 429772.669 4414616.558 59.721 429771.878 4414612.637 59.718 429771.098 4414608.708 59.717 429770.360 4414604.777 59.709,,0,0,0,0,0
2,429817.942 4414818.898 60.044 429818.750 4414822.824 60.077 429819.544 4414826.745 60.028 429820.316 4414830.655 59.948 429821.132 4414834.609 59.880 429821.681 4414837.418 59.880 429822.443 4414841.309 59.880 429823.248 4414845.256 59.865 429824.092 4414849.240 59.820 429824.836 4414853.073 59.808,,0,0,0,0,0
3,429821.356 4414818.213 60.007 429822.153 4414822.145 59.995 429822.928 4414826.070 59.983 429823.700 4414829.975 59.825 429824.503 4414833.945 59.825 429825.070 4414836.747 59.825 429825.854 4414840.621 59.825 429826.659 4414844.578 59.798 429828.133 4414848.468 59.798 429829.022 4414850.583 59.798,,0,0,0,0,0
4,429793.591 4414698.027 59.642 429794.374 4414701.912 59.550 429795.149 4414705.778 59.550 429795.936 4414709.700 59.550 429796.740 4414713.713 59.550 429797.526 4414717.630 59.550 429798.299 4414721.485 59.550 429799.086 4414725.407 59.550 429799.872 4414729.329 59.550 429800.659 4414733.251 59.550 429801.471 4414737.168 59.525 429802.267 4414741.088 59.516 429803.035 4414745.013 59.516 429803.818 4414748.936 59.547 429804.606 4414752.819 59.616 429805.385 4414756.762 59.680 429806.170 4414760.683 59.730 429806.972 4414764.589 59.821 429807.786 4414768.530 59.934 429808.576 4414772.476 59.992 429809.356 4414776.379 60.026 429810.163 4414780.275 60.097 429810.965 4414784.194 60.159 429811.759 4414788.119 60.159 429812.547 4414792.047 60.138 429813.348 4414795.998 60.164 429814.071 4414799.586 60.142 429814.863 4414803.532 60.142 429815.660 4414807.452 60.072 429816.442 4414811.390 60.072 429817.211 4414815.281 60.056 429817.942 4414818.898 60.044,,0,0,0,0,0
5,429796.980 4414697.342 59.675 429797.768 4414701.240 59.540 429798.545 4414705.086 59.540 429799.337 4414709.006 59.540 429800.154 4414713.050 59.540 429800.945 4414716.965 59.540 429801.719 4414720.795 59.540 429802.511 4414724.716 59.540 429803.304 4414728.636 59.540 429804.096 4414732.557 59.540 429804.906 4414736.474 59.612 429805.702 4414740.394 59.603 429806.470 4414744.320 59.603 429807.252 4414748.243 59.634 429808.041 4414752.111 59.634 429808.828 4414756.060 59.698 429809.609 4414759.982 59.698 429810.396 4414763.887 59.758 429811.178 4414767.843 59.879 429811.974 4414771.797 59.925 429812.762 4414775.691 59.972 429813.568 4414779.580 60.057 429814.360 4414783.501 60.092 429815.148 4414787.429 60.103 429815.939 4414791.359 60.091 429816.749 4414795.319 60.085 429817.472 4414798.892 60.066 429818.268 4414802.846 60.058 429819.061 4414806.767 60.038 429819.858 4414810.708 60.029 429820.632 4414814.585 60.014 429821.356 4414818.213 60.007,,0,0,0,0,0
6,429787.517 4414650.288 59.691 429788.334 4414654.198 59.691 429789.103 4414658.123 59.689 429789.925 4414662.038 59.675 429790.708 4414665.960 59.675 429791.492 4414669.883 59.675 429792.271 4414673.781 59.675 429793.055 4414677.704 59.675 429793.839 4414681.626 59.675 429794.634 4414685.603 59.675 429795.404 4414689.456 59.675 429796.196 4414693.420 59.675 429796.980 4414697.342 59.675,,0,0,0,0,0
7,429784.091 4414650.979 59.758 429784.885 4414654.895 59.790 429785.680 4414658.815 59.790 429786.474 4414662.735 59.784 429787.267 4414666.656 59.784 429788.061 4414670.577 59.749 429788.853 4414674.479 59.749 429789.641 4414678.401 59.773 429790.444 4414682.319 59.770 429791.240 4414686.281 59.722 429792.010 4414690.153 59.760 429792.801 4414694.106 59.760 429793.591 4414698.027 59.760,,0,0,0,0,0
8,429767.558 4414551.715 59.628 429767.658 4414552.220 59.628 429768.101 4414554.483 59.628 429768.907 4414558.408 59.636 429769.716 4414562.325 59.641 429770.510 4414566.255 59.650 429771.295 4414570.180 59.650 429772.099 4414574.111 59.669 429772.879 4414578.021 59.669 429773.668 4414581.942 59.671 429774.455 4414585.829 59.680 429775.256 4414589.777 59.690 429776.055 4414593.709 59.694 429776.414 4414595.498 59.694 429777.180 4414599.312 59.694 429777.992 4414603.229 59.703 429778.757 4414607.155 59.707 429779.531 4414611.094 59.702 429780.341 4414615.011 59.710 429781.167 4414618.925 59.710 429781.957 4414622.846 59.716 429782.741 4414626.768 59.743 429783.550 4414630.686 59.719 429784.352 4414634.604 59.719 429785.130 4414638.528 59.719 429785.908 4414642.452 59.717 429786.705 4414646.371 59.718 429787.517 4414650.288 59.715,,0,0,0,0,0
9,429764.066 4414552.023 59.566 429764.190 4414552.526 59.560 429764.714 4414555.170 59.587 429765.527 4414559.092 59.596 429766.339 4414563.008 59.625 429767.125 4414566.938 59.634 429767.901 4414570.864 59.634 429768.697 4414574.793 59.654 429769.486 4414578.704 59.662 429770.287 4414582.623 59.714 429771.069 4414586.520 59.722 429771.869 4414590.461 59.739 429772.671 4414594.389 59.755 429773.027 4414596.155 59.755 429773.797 4414599.998 59.761 429774.605 4414603.916 59.731 429775.370 4414607.842 59.783 429776.139 4414611.778 59.732 429776.956 4414615.693 59.740 429777.786 4414619.607 59.792 429778.572 4414623.528 59.758 429779.356 4414627.451 59.833 429780.161 4414631.369 59.814 429780.947 4414635.291 59.814 429781.745 4414639.211 59.814 429782.513 4414643.136 59.816 429783.296 4414647.059 59.811 429784.091 4414650.979 59.758,,0,0,0,0,0
10,429770.360 4414604.777 59.709 429769.526 4414600.864 59.705 429768.720 4414596.991 59.691 429768.372 4414595.252 59.691 429767.587 4414591.325 59.687 429766.789 4414587.394 59.671 429765.990 4414583.489 59.648 429765.199 4414579.568 59.648 429764.391 4414575.655 59.634 429763.597 4414571.730 59.612 429762.811 4414567.807 59.603 429762.014 4414563.883 59.597 429761.212 4414559.965 59.590 429760.394 4414556.046 59.582 429759.757 4414552.917 59.554 429759.653 4414552.412 59.554 429759.565 4414552.004 59.554,,0,0,0,0,0
11,429766.880 4414605.482 59.662 429766.058 4414601.568 59.659 429765.250 4414597.665 59.657 429764.902 4414595.950 59.657 429764.122 4414592.025 59.648 429763.329 4414588.100 59.627 429762.531 4414584.185 59.605 429761.735 4414580.265 59.605 429760.947 4414576.346 59.594 429760.162 4414572.422 59.581 429759.373 4414568.500 59.561 429758.579 4414564.578 59.552 429757.790 4414560.657 59.552 429756.992 4414556.736 59.541 429756.278 4414553.224 59.526 429756.175 4414552.719 59.526,,0,0,0,0,0
12,429751.490 4414511.100 59.292 429750.440 4414507.126 59.274 429749.658 4414503.281 59.274 429748.827 4414499.219 59.260 429748.054 4414495.358 59.214 429747.288 4414491.439 59.194 429746.475 4414487.522 59.185 429745.685 4414483.613 59.159 429744.115 4414475.766 59.114 429742.516 4414467.926 59.071 429741.750 4414464.001 59.039 429740.994 4414460.070 59.023 429740.292 4414456.138 58.998 429738.587 4414448.316 58.943,,0,0,0,0,0
13,429746.122 4414463.116 59.084 429746.871 4414467.044 59.205 429747.663 4414470.964 59.215 429748.477 4414474.884 59.222 429749.273 4414478.810 59.321 429750.072 4414482.728 59.321 429750.866 4414486.626 59.321 429751.665 4414490.545 59.321 429752.461 4414494.453 59.321 429753.237 4414498.257 59.321 429754.091 4414502.446 59.321 429754.861 4414506.225 59.321 429755.618 4414509.582 59.321,,0,0,0,0,0
14,429750.401 4414466.329 59.263 429751.195 4414470.249 59.263 429751.991 4414474.174 59.263 429752.787 4414478.102 59.263 429753.582 4414482.020 59.263 429754.370 4414485.911 59.263 429755.165 4414489.831 59.263 429755.956 4414493.735 59.263 429756.719 4414497.498 59.263 429757.589 4414501.787 59.263 429758.344 4414505.515 59.263 429759.065 4414508.802 59.263,,0,0,0,0,0
15,429747.039 4414507.819 59.240 429746.250 4414503.923 59.230 429745.467 4414499.951 59.213 429744.664 4414496.054 59.169 429743.869 4414492.136 59.156 429743.073 4414488.216 59.146 429742.274 4414484.301 59.115 429741.488 4414480.379 59.102 429740.688 4414476.459 59.072 429739.899 4414472.537 59.039 429739.109 4414468.616 59.028 429738.315 4414464.696 58.991 429737.522 4414460.775 58.977 429736.723 4414456.858 58.952 429735.929 4414452.936 58.911 429735.141 4414449.014 58.911 429734.346 4414445.094 58.885 429733.554 4414441.175 58.850 429732.864 4414437.766 58.850 429732.070 4414433.846 58.826 429731.275 4414429.926 58.794 429730.482 4414426.005 58.773,,0,0,0,0,0
16,429743.317 4414471.845 59.108 429744.884 4414479.695 59.151,,0,0,0,0,0
17,429735.688 4414376.199 58.638 429736.431 4414379.909 58.638 429737.199 4414383.788 58.647 429737.988 4414387.731 58.669 429738.777 4414391.694 58.681 429739.548 4414395.591 58.688 429740.350 4414399.510 58.688 429741.139 4414403.415 58.706 429741.918 4414407.375 58.721 429742.713 4414411.291 58.742 429743.519 4414415.233 58.755 429744.284 4414419.159 58.755 429745.057 4414423.053 58.769 429745.788 4414426.984 58.807 429746.532 4414430.920 58.807 429746.800 4414434.943 58.859 429747.049 4414438.458 58.848 429747.324 4414442.468 58.876 429747.669 4414446.477 58.941 429747.974 4414450.496 58.962 429748.365 4414454.510 58.988 429748.941 4414458.457 59.024 429749.630 4414462.406 59.035 429750.401 4414466.329 59.263,,0,0,0,0,0
18,429732.242 4414376.896 58.552 429732.995 4414380.605 58.572 429733.761 4414384.494 58.581 429734.546 4414388.433 58.604 429735.340 4414392.386 58.633 429736.124 4414396.287 58.651 429736.935 4414400.204 58.651 429737.720 4414404.113 58.683 429738.508 4414408.064 58.714 429739.320 4414411.977 58.751 429740.130 4414415.913 58.783 429740.875 4414419.843 58.783 429741.677 4414423.738 58.811 429742.341 4414427.683 58.851 429742.846 4414431.666 58.864 429743.206 4414435.671 58.891 429743.469 4414439.179 58.880 429743.747 4414443.192 58.894 429744.085 4414447.203 58.972 429744.414 4414451.217 58.993 429744.864 4414455.216 59.035 429745.452 4414459.165 59.067 429746.122 4414463.116 59.084,,0,0,0,0,0
19,429738.587 4414448.316 58.943 429737.783 4414444.399 58.932 429736.988 4414440.484 58.904 429736.296 4414437.071 58.904 429735.505 4414433.151 58.881 429734.702 4414429.231 58.846 429733.909 4414425.311 58.819,,0,0,0,0,0
20,429739.351 4414436.452 58.924 429738.788 4414432.487 58.898 429738.211 4414428.520 58.881 429737.432 4414424.598 58.848,,0,0,0,0,0
21,429730.482 4414426.005 58.773 429729.691 4414422.088 58.773 429728.897 4414418.167 58.746 429728.112 4414414.243 58.716 429727.322 4414410.322 58.689 429726.531 4414406.397 58.660 429725.741 4414402.478 58.650 429724.942 4414398.558 58.642 429724.151 4414394.640 58.605 429723.355 4414390.716 58.588 429722.557 4414386.794 58.569 429721.761 4414382.879 58.555 429720.996 4414379.173 58.552,,0,0,0,0,0
22,429733.909 4414425.311 58.819 429733.126 4414421.398 58.804 429732.335 4414417.477 58.790 429731.543 4414413.549 58.760 429730.751 4414409.630 58.742 429729.961 4414405.697 58.709 429729.178 4414401.779 58.697 429728.391 4414397.858 58.690 429727.604 4414393.945 58.644 429726.800 4414390.013 58.617 429726.002 4414386.087 58.615 429725.205 4414382.182 58.606 429724.406 4414378.483 58.603,,0,0,0,0,0
23,429737.432 4414424.598 58.848 429736.621 4414420.697 58.815 429735.907 4414416.761 58.794 429735.100 4414412.830 58.768 429734.213 4414408.931 58.761 429733.474 4414404.980 58.729 429732.687 4414401.067 58.702 429731.893 4414397.146 58.691 429731.101 4414393.240 58.644 429730.299 4414389.300 58.626 429729.457 4414385.377 58.621 429728.668 4414381.481 58.604 429727.884 4414377.779 58.604,,0,0,0,0,0
24,429664.448 4414352.730 58.249 429668.366 4414351.924 58.249 429672.284 4414351.118 58.249 429676.202 4414350.313 58.249 429680.120 4414349.507 58.249 429684.038 4414348.701 58.249 429687.956 4414347.896 58.249 429692.263 4414347.010 58.249 429695.857 4414346.271 58.249 429699.280 4414345.567 58.249 429699.713 4414345.478 58.249 429700.780 4414345.267 58.249,,0,0,0,0,0
25,429665.149 4414356.153 58.198 429669.072 4414355.372 58.191 429672.991 4414354.571 58.191 429676.910 4414353.771 58.190 429680.830 4414352.972 58.211 429684.749 4414352.173 58.227 429688.668 4414351.374 58.249 429692.918 4414350.507 58.249 429696.560 4414349.758 58.266 429699.995 4414349.063 58.275 429700.509 4414348.959 58.275 429701.467 4414348.720 58.275,,0,0,0,0,0
26,429665.849 4414359.574 58.150 429669.773 4414358.799 58.141 429673.694 4414358.007 58.141 429677.613 4414357.207 58.136 429681.534 4414356.413 58.169 429685.454 4414355.619 58.201 429689.374 4414354.822 58.236 429693.566 4414353.971 58.236 429697.257 4414353.215 58.275 429700.706 4414352.535 58.304 429701.300 4414352.418 58.304 429702.163 4414352.221 58.304,,0,0,0,0,0
27,429666.554 4414363.018 58.181 429670.475 4414362.229 58.169 429674.397 4414361.440 58.165 429678.316 4414360.639 58.171 429682.236 4414359.843 58.191 429686.156 4414359.049 58.206 429690.075 4414358.249 58.243 429694.210 4414357.407 58.257 429697.949 4414356.645 58.304 429701.406 4414355.956 58.324 429702.078 4414355.822 58.324 429702.857 4414355.711 58.324,,0,0,0,0,0
28,429703.038 4414360.018 58.321 429702.270 4414360.180 58.321 429698.814 4414360.932 58.297 429695.006 4414361.658 58.224 429690.936 4414362.452 58.192 429687.013 4414363.237 58.165 429683.097 4414364.050 58.144 429679.178 4414364.851 58.171 429675.259 4414365.651 58.186 429671.341 4414366.457 58.160 429667.423 4414367.267 58.160 429663.497 4414368.032 58.243 429659.574 4414368.811 58.255 429655.656 4414369.619 58.249 429652.927 4414370.177 58.316 429648.970 4414370.968 58.340 429645.014 4414371.762 58.340 429641.237 4414372.545 58.313 429637.228 4414373.363 58.349 429633.260 4414374.148 58.356 429628.575 4414375.080 58.395 429624.586 4414375.878 58.406 429620.653 4414376.663 58.517 429616.706 4414377.457 58.517 429612.791 4414378.243 58.535 429608.869 4414379.029 58.535 429604.959 4414379.842 58.570 429601.041 4414380.651 58.570 429597.115 4414381.439 58.588 429593.185 4414382.183 58.585 429589.251 4414382.976 58.591 429585.329 4414383.763 58.620 429581.570 4414384.547 58.618 429580.934 4414384.683 58.618 429577.029 4414385.469 58.649 429573.101 4414386.261 58.670 429569.172 4414387.052 58.684 429565.250 4414387.841 58.695 429561.354 4414388.625 58.728 429557.423 4414389.418 58.741 429553.494 4414390.209 58.767 429549.578 4414390.996 58.787 429545.658 4414391.789 58.795 429541.731 4414392.581 58.915 429537.809 4414393.373 58.927 429533.896 4414394.160 58.950 429529.971 4414394.948 58.950 429526.049 4414395.737 58.959 429522.118 4414396.528 58.959 429518.198 4414397.322 58.981 429514.282 4414398.115 58.981 429510.364 4414398.905 58.995 429506.440 4414399.695 58.995 429502.519 4414400.488 59.009 429498.593 4414401.281 59.009 429494.671 4414402.075 59.026 429490.759 4414402.867 59.116 429486.833 4414403.664 59.116 429482.913 4414404.456 59.130 429478.991 4414405.243 59.130 429475.066 4414406.040 59.143 429471.150 4414406.834 59.156,,0,0,0,0,0
29,429703.817 4414363.426 58.292 429702.971 4414363.604 58.292 429699.500 4414364.335 58.292 429695.651 4414365.107 58.166 429691.639 4414365.887 58.166 429687.717 4414366.676 58.114 429683.804 4414367.504 58.114 429679.881 4414368.285 58.156 429675.957 4414369.062 58.156 429672.039 4414369.871 58.103 429668.126 4414370.699 58.103 429664.196 4414371.449 58.248 429660.269 4414372.209 58.248 429656.355 4414373.033 58.195 429653.157 4414373.697 58.320 429649.200 4414374.489 58.320 429645.243 4414375.281 58.320 429641.381 4414376.101 58.267 429633.441 4414378.051 58.297,,0,0,0,0,0
30,429704.601 4414366.851 58.272 429703.675 4414367.044 58.298 429700.193 4414367.769 58.272 429696.298 4414368.562 58.178 429692.344 4414369.334 58.136 429688.423 4414370.124 58.130 429684.507 4414370.940 58.130 429680.583 4414371.719 58.145 429676.660 4414372.496 58.145 429672.741 4414373.297 58.118 429668.825 4414374.114 58.118 429664.900 4414374.888 58.191 429660.977 4414375.669 58.191 429657.061 4414376.483 58.164 429653.388 4414377.242 58.224 429649.423 4414377.915 58.248 429645.446 4414378.388 58.248,,0,0,0,0,0
31,429651.959 4414355.317 58.182 429652.698 4414355.167 58.182 429656.618 4414354.371 58.182 429660.532 4414353.546 58.186 429664.448 4414352.730 58.249,,0,0,0,0,0
32,429652.188 4414358.828 58.167 429653.397 4414358.582 58.150 429657.319 4414357.795 58.150 429661.230 4414356.953 58.144 429665.149 4414356.153 58.198,,0,0,0,0,0
33,429652.414 4414362.295 58.221 429654.088 4414361.956 58.203 429658.010 4414361.169 58.203 429661.926 4414360.357 58.171 429665.849 4414359.574 58.150,,0,0,0,0,0
34,429652.640 4414365.764 58.254 429654.787 4414365.373 58.242 429658.712 4414364.602 58.227 429662.634 4414363.816 58.192 429666.554 4414363.018 58.181,,0,0,0,0,0
35,429434.611 4414406.864 59.291 429438.568 4414406.085 59.227 429442.940 4414405.193 59.212 429446.863 4414404.391 59.212 429450.777 4414403.592 59.199 429452.091 4414403.324 59.199 429453.930 4414402.950 59.199 429457.907 4414402.136 59.157 429461.873 4414401.323 59.157 429465.792 4414400.521 59.144 429469.705 4414399.721 59.127 429473.617 4414398.930 59.099 429477.554 4414398.162 59.099 429481.474 4414397.366 59.060 429485.390 4414396.548 59.051 429489.324 4414395.750 59.031 429493.224 4414394.960 59.005 429497.148 4414394.163 58.996 429501.081 4414393.368 58.977 429505.002 4414392.579 58.968 429508.931 4414391.789 58.898 429512.843 4414390.992 58.883 429516.753 4414390.204 58.861 429520.675 4414389.416 58.861 429524.620 4414388.624 58.846 429528.542 4414387.838 58.846 429532.470 4414387.041 58.828 429536.371 4414386.249 58.828 429540.294 4414385.459 58.806 429544.230 4414384.670 58.773 429548.151 4414383.880 58.766 429552.059 4414383.098 58.758 429556.001 4414382.312 58.745 429559.942 4414381.501 58.707 429563.803 4414380.721 58.694 429567.724 4414379.926 58.642 429571.663 4414379.123 58.546 429575.601 4414378.332 58.529 429579.483 4414377.556 58.529 429580.332 4414377.387 58.529 429583.880 4414376.669 58.514 429587.800 4414375.874 58.514 429591.752 4414375.080 58.489 429595.673 4414374.292 58.489 429599.604 4414373.495 58.471 429603.526 4414372.700 58.451 429607.431 4414371.911 58.451 429611.351 4414371.118 58.451 429615.258 4414370.339 58.438 429619.241 4414369.539 58.413 429623.189 4414368.751 58.406 429627.263 4414367.912 58.366 429632.917 4414366.755 58.323 429636.883 4414365.921 58.307,,0,0,0,0,0
36,429633.441 4414378.051 58.297 429629.219 4414378.597 58.333 429625.267 4414379.348 58.346 429621.339 4414380.122 58.383 429617.407 4414380.904 58.392 429613.486 4414381.686 58.420 429609.565 4414382.477 58.420 429605.650 4414383.286 58.471 429601.732 4414384.090 58.486 429597.807 4414384.872 58.514 429593.886 4414385.658 58.522 429589.961 4414386.451 58.522 429586.041 4414387.248 58.563 429582.173 4414388.033 58.563 429581.638 4414388.142 58.563 429577.722 4414388.928 58.601 429573.798 4414389.716 58.614 429569.873 4414390.505 58.641 429565.953 4414391.297 58.654 429562.041 4414392.091 58.676 429558.115 4414392.876 58.685 429554.191 4414393.662 58.710 429550.271 4414394.450 58.743 429546.350 4414395.241 58.754 429542.427 4414396.029 58.754 429538.505 4414396.821 58.778 429534.587 4414397.609 58.813 429530.664 4414398.395 58.823 429526.742 4414399.180 58.849 429522.817 4414399.969 58.849 429518.896 4414400.762 58.871 429514.979 4414401.562 58.883 429511.059 4414402.353 58.912 429507.136 4414403.142 58.922 429503.215 4414403.934 58.936 429499.293 4414404.728 58.947 429495.373 4414405.523 58.975 429491.456 4414406.320 59.002 429487.534 4414407.117 59.012 429483.613 4414407.908 59.026 429479.692 4414408.699 59.035 429475.771 4414409.498 59.062 429471.853 4414410.296 59.092,,0,0,0,0,0
37,429437.735 4414402.606 59.316 429442.248 4414401.746 59.204 429446.173 4414400.947 59.197 429450.085 4414400.146 59.183 429451.651 4414399.825 59.183 429453.202 4414399.507 59.183 429457.194 4414398.688 59.116 429461.173 4414397.869 59.116 429465.091 4414397.065 59.084 429469.004 4414396.266 59.070 429472.913 4414395.480 59.049 429476.849 4414394.686 59.038 429480.768 4414393.886 59.014 429484.688 4414393.088 59.005 429488.627 4414392.292 58.975 429492.521 4414391.504 58.975 429496.446 4414390.703 58.954 429500.382 4414389.909 58.922 429504.304 4414389.121 58.912 429508.234 4414388.328 58.903 429512.143 4414387.527 58.888 429516.051 4414386.748 58.853 429519.974 4414385.963 58.843 429523.927 4414385.174 58.814 429527.850 4414384.392 58.814 429531.777 4414383.586 58.784 429535.674 4414382.794 58.774 429539.597 4414382.005 58.754 429543.536 4414381.215 58.719 429547.458 4414380.427 58.719 429551.362 4414379.641 58.706 429555.307 4414378.844 58.682 429559.257 4414378.042 58.648 429563.100 4414377.261 58.636 429567.021 4414376.468 58.615 429570.966 4414375.665 58.605 429574.909 4414374.878 58.576 429578.780 4414374.106 58.561 429579.731 4414373.916 58.561 429583.175 4414373.216 58.532 429587.093 4414372.411 58.532 429591.052 4414371.614 58.493 429594.974 4414370.825 58.480 429598.907 4414370.026 58.448 429602.830 4414369.230 58.428 429606.728 4414368.435 58.416 429610.648 4414367.638 58.398 429614.551 4414366.860 58.368 429618.550 4414366.056 58.334 429622.503 4414365.252 58.334 429626.625 4414364.422 58.308 429632.729 4414362.688 58.266,,0,0,0,0,0
38,429471.150 4414406.834 59.156 429467.232 4414407.627 59.156 429463.312 4414408.423 59.156 429459.370 4414409.218 59.164 429455.425 4414410.015 59.179 429452.997 4414410.518 59.221 429452.200 4414410.682 59.221 429448.283 4414411.481 59.245 429444.364 4414412.289 59.254 429440.255 4414413.133 59.264 429436.323 4414413.942 59.277 429435.165 4414414.212 59.276,,0,0,0,0,0
39,429471.853 4414410.296 59.092 429467.934 4414411.092 59.099 429464.014 4414411.890 59.099 429460.087 4414412.688 59.097 429456.161 4414413.495 59.121 429453.443 4414414.061 59.126 429452.902 4414414.174 59.126 429448.977 4414414.944 59.177 429445.056 4414415.739 59.198 429441.072 4414416.545 59.219 429437.153 4414417.374 59.248 429434.832 4414417.878 59.257,,0,0,0,0,0
40,429042.512 4414987.113 62.684 429041.204 4414990.893 62.706 429039.834 4414994.787 62.710 429038.362 4414998.714 62.758 429036.761 4415002.702 62.769 429035.238 4415006.401 62.790 429033.610 4415010.248 62.802 429031.973 4415014.082 62.809 429030.372 4415017.808 62.809 429029.090 4415020.712 62.809,,0,0,0,0,0
41,429045.345 4414988.101 62.685 429044.015 4414991.873 62.695 429042.617 4414995.789 62.695 429041.153 4414999.768 62.703 429039.568 4415003.841 62.750 429038.041 4415007.538 62.758 429036.416 4415011.432 62.770 429034.781 4415015.313 62.777 429033.193 4415019.060 62.777 429031.830 4415022.176 62.777,,0,0,0,0,0
42,429048.212 4414989.101 62.636 429046.878 4414992.872 62.648 429045.458 4414996.813 62.658 429043.985 4415000.839 62.673 429042.385 4415004.984 62.715 429040.863 4415008.683 62.715 429039.217 4415012.616 62.716 429037.575 4415016.538 62.729 429035.991 4415020.301 62.737 429034.536 4415023.622 62.737,,0,0,0,0,0
43,429020.579 4415013.463 62.733 429022.219 4415009.805 62.723 429023.835 4415006.119 62.690 429025.403 4415002.412 62.680 429026.909 4414998.706 62.687 429028.397 4414994.947 62.678 429029.814 4414991.177 62.632 429031.182 4414987.399 62.621 429032.497 4414983.621 62.597 429033.830 4414979.763 62.597 429034.183 4414978.742 62.597 429035.353 4414974.892 62.559 429036.515 4414971.049 62.562 429037.658 4414967.186 62.554 429038.746 4414963.309 62.493 429039.765 4414959.441 62.493 429040.742 4414955.523 62.468 429041.698 4414951.616 62.453 429042.560 4414947.685 62.418 429043.379 4414943.745 62.380 429044.155 4414939.821 62.380 429044.909 4414935.849 62.368 429045.589 4414931.879 62.334 429046.208 4414927.908 62.314 429046.786 4414923.934 62.304 429047.336 4414919.972 62.294 429047.858 4414915.970 62.282 429048.019 4414914.524 62.261 429048.415 4414910.531 62.247 429048.810 4414906.543 62.234 429049.189 4414902.552 62.206 429049.553 4414898.567 62.180 429049.904 4414894.582 62.180 429050.259 4414890.605 62.151 429050.622 4414886.613 62.142 429050.974 4414882.633 62.132 429051.317 4414878.648 62.132 429051.684 4414874.677 62.097 429052.063 4414870.706 62.090 429052.463 4414866.743 62.052 429052.877 4414862.780 62.035 429053.344 4414858.807 62.021 429053.868 4414854.894 61.993 429054.476 4414850.991 61.982 429055.137 4414847.066 61.972 429055.907 4414843.168 61.948 429056.501 4414840.182 61.929 429057.354 4414836.298 61.916 429058.205 4414832.427 61.906 429059.210 4414828.595 61.881 429060.267 4414824.737 61.870 429061.386 4414820.957 61.862 429062.554 4414817.154 61.839 429063.766 4414813.382 61.827 429065.079 4414809.649 61.803 429066.451 4414805.891 61.803 429067.903 4414802.238 61.771 429069.432 4414798.568 61.757 429071.037 4414794.931 61.715 429072.670 4414791.293 61.703 429074.344 4414787.660 61.690 429076.034 4414784.079 61.653 429077.804 4414780.505 61.642 429079.586 4414776.935 61.633 429081.407 4414773.391 61.608 429082.725 4414770.839 61.608 429084.681 4414767.429 61.581 429086.675 4414764.026 61.571 429088.809 4414760.661 61.552 429090.998 4414757.328 61.532 429093.215 4414753.998 61.522 429095.437 4414750.684 61.512 429097.655 4414747.360 61.484 429099.891 4414744.045 61.453 429102.135 4414740.733 61.443 429104.373 4414737.418 61.429 429106.604 4414734.099 61.418 429108.840 4414730.782 61.385 429111.075 4414727.467 61.368 429113.312 4414724.152 61.338 429115.550 4414720.837 61.338 429117.799 4414717.523 61.305 429120.040 4414714.209 61.291 429122.269 4414710.890 61.261 429124.382 4414707.745 61.253 429126.621 4414704.432 61.244 429128.862 4414701.117 61.230 429131.111 4414697.808 61.183 429133.348 4414694.498 61.156 429135.583 4414691.180 61.156 429137.831 4414687.868 61.126 429140.071 4414684.554 61.114 429142.317 4414681.240 61.080 429144.561 4414677.929 61.064 429146.794 4414674.608 61.058 429149.020 4414671.293 61.043 429151.264 4414667.975 61.029 429153.500 4414664.660 61.021 429155.739 4414661.345 61.008 429157.978 4414658.039 60.978 429160.228 4414654.728 60.965 429162.475 4414651.419 60.943 429164.699 4414648.095 60.925 429166.135 4414645.981 60.907 429168.373 4414642.674 60.897 429170.621 4414639.363 60.888 429172.870 4414636.056 60.861 429175.106 4414632.739 60.852 429177.337 4414629.416 60.838 429179.563 4414626.097 60.805 429181.800 4414622.778 60.792 429184.046 4414619.469 60.757 429186.291 4414616.158 60.757 429188.526 4414612.840 60.718 429190.754 4414609.518 60.709 429193.002 4414606.210 60.691 429195.248 4414602.898 60.677 429197.485 4414599.581 60.657 429199.719 4414596.262 60.634 429201.954 4414592.945 60.624 429204.191 4414589.629 60.588 429206.434 4414586.307 60.588 429206.646 4414585.993 60.588 429208.880 4414582.671 60.560 429211.108 4414579.351 60.545 429213.343 4414576.035 60.516 429215.583 4414572.724 60.512 429217.826 4414569.412 60.497 429220.075 4414566.099 60.490 429222.322 4414562.792 60.468 429224.567 4414559.480 60.439 429226.804 4414556.165 60.427 429229.040 4414552.849 60.427 429231.286 4414549.537 60.397 429233.526 4414546.224 60.368 429235.766 4414542.909 60.353 429238.008 4414539.594 60.324 429240.247 4414536.280 60.324 429242.481 4414532.958 60.289 429244.706 4414529.642 60.272 429246.864 4414526.438 60.256 429249.109 4414523.133 60.243 429251.344 4414519.821 60.220 429253.581 4414516.517 60.209 429255.837 4414513.239 60.181 429258.127 4414509.960 60.158 429260.442 4414506.742 60.147 429262.777 4414503.534 60.135 429265.200 4414500.399 60.105 429267.671 4414497.296 60.070 429270.208 4414494.203 60.070 429272.759 4414491.189 60.038 429275.382 4414488.198 60.035 429278.059 4414485.266 60.023 429280.779 4414482.343 60.014 429282.793 4414480.219 60.014 429285.611 4414477.416 59.984 429288.448 4414474.632 59.951 429291.306 4414471.872 59.939 429294.205 4414469.152 59.919 429297.164 4414466.461 59.919 429300.152 4414463.873 59.880 429303.166 4414461.305 59.868 429306.235 4414458.795 59.844 429309.347 4414456.325 59.837 429312.537 4414453.911 59.833 429315.710 4414451.537 59.823 429318.934 4414449.231 59.779 429322.194 4414446.958 59.739 429325.497 4414444.702 59.739 429328.775 4414442.508 59.724 429332.133 4414440.400 59.701 429335.542 4414438.353 59.679 429338.979 4414436.342 59.669 429342.445 4414434.345 59.647 429345.885 4414432.419 59.630 429349.397 4414430.565 59.608 429352.925 4414428.744 59.601 429356.482 4414427.000 59.580 429360.104 4414425.303 59.580 429363.712 4414423.727 59.549 429367.376 4414422.161 59.536 429371.046 4414420.636 59.504 429374.736 4414419.165 59.487 429378.481 4414417.760 59.487 429382.181 4414416.419 59.465,,0,0,0,0,0
44,429023.882 4415014.928 62.779 429025.494 4415011.241 62.764 429027.096 4415007.497 62.736 429028.669 4415003.737 62.727 429030.171 4415000.030 62.733 429031.693 4414996.193 62.721 429033.128 4414992.371 62.673 429034.508 4414988.558 62.665 429035.824 4414984.781 62.639 429037.213 4414980.771 62.639 429037.548 4414979.806 62.639 429038.731 4414975.911 62.603 429039.905 4414972.039 62.608 429041.063 4414968.124 62.605 429042.158 4414964.194 62.548 429043.176 4414960.326 62.548 429044.186 4414956.338 62.525 429045.153 4414952.390 62.509 429046.026 4414948.411 62.469 429046.849 4414944.425 62.423 429047.615 4414940.499 62.411 429048.382 4414936.444 62.411 429049.077 4414932.420 62.382 429049.707 4414928.411 62.361 429050.293 4414924.406 62.361 429050.834 4414920.443 62.347 429051.366 4414916.371 62.341 429051.531 4414914.893 62.320 429051.913 4414910.876 62.302 429052.313 4414906.872 62.293 429052.695 4414902.863 62.264 429053.061 4414898.875 62.245 429053.421 4414894.891 62.234 429053.778 4414890.927 62.204 429054.139 4414886.918 62.199 429054.499 4414882.947 62.154 429054.868 4414878.964 62.154 429055.243 4414875.020 62.129 429055.623 4414871.071 62.129 429056.011 4414867.139 62.104 429056.398 4414863.205 62.104 429056.831 4414859.228 62.090 429057.390 4414855.425 62.048 429058.000 4414851.620 62.048 429058.661 4414847.736 62.035 429059.425 4414843.892 62.014 429060.021 4414840.954 61.995 429060.837 4414837.111 61.989 429061.665 4414833.313 61.973 429062.651 4414829.555 61.941 429063.716 4414825.700 61.930 429064.767 4414822.018 61.907 429065.904 4414818.250 61.882 429067.079 4414814.548 61.878 429068.412 4414810.913 61.839 429069.794 4414807.159 61.839 429071.140 4414803.613 61.822 429072.665 4414799.995 61.811 429074.239 4414796.399 61.769 429075.843 4414792.776 61.767 429077.503 4414789.136 61.745 429079.148 4414785.625 61.721 429080.894 4414782.063 61.704 429082.655 4414778.507 61.695 429084.456 4414774.989 61.666 429085.747 4414772.480 61.666 429087.682 4414769.213 61.638 429089.634 4414765.919 61.628 429091.756 4414762.585 61.606 429093.933 4414759.271 61.587 429096.183 4414755.964 61.594 429098.412 4414752.677 61.577 429100.614 4414749.352 61.562 429102.856 4414746.044 61.534 429105.071 4414742.713 61.498 429107.296 4414739.389 61.468 429109.529 4414736.073 61.468 429111.767 4414732.758 61.448 429114.007 4414729.449 61.389 429116.248 4414726.138 61.371 429118.490 4414722.826 61.371 429120.748 4414719.507 61.350 429122.997 4414716.197 61.350 429125.233 4414712.887 61.335 429127.353 4414709.752 61.328 429129.593 4414706.445 61.328 429131.802 4414703.105 61.291 429134.048 4414699.788 61.267 429136.293 4414696.497 61.230 429138.523 4414693.177 61.230 429140.747 4414689.839 61.138 429142.990 4414686.529 61.138 429145.246 4414683.213 61.119 429147.496 4414679.905 61.119 429149.740 4414676.589 61.112 429151.974 4414673.293 61.117 429154.241 4414669.978 61.103 429156.464 4414666.657 61.099 429158.709 4414663.346 61.077 429160.939 4414660.052 61.047 429163.188 4414656.732 60.960 429165.433 4414653.422 60.960 429167.657 4414650.099 60.942 429169.099 4414647.975 60.924 429171.335 4414644.681 60.924 429173.584 4414641.367 60.924 429175.828 4414638.057 60.918 429178.017 4414634.708 60.896 429180.271 4414631.393 60.880 429182.500 4414628.087 60.861 429184.744 4414624.767 60.861 429186.995 4414621.461 60.837 429189.247 4414618.155 60.837 429191.488 4414614.838 60.810 429193.722 4414611.522 60.810 429195.977 4414608.218 60.805 429198.232 4414604.907 60.805 429200.475 4414601.595 60.785 429202.720 4414598.281 60.774 429204.964 4414594.970 60.774 429207.186 4414591.644 60.632 429209.407 4414588.288 60.632 429209.601 4414587.995 60.632 429211.802 4414584.643 60.614 429214.037 4414581.333 60.603 429216.267 4414578.016 60.581 429218.502 4414574.706 60.572 429220.745 4414571.393 60.549 429222.996 4414568.072 60.549 429225.246 4414564.770 60.524 429227.494 4414561.458 60.505 429229.723 4414558.142 60.498 429231.963 4414554.828 60.427 429234.211 4414551.512 60.407 429236.452 4414548.203 60.388 429238.695 4414544.886 60.388 429240.940 4414541.571 60.373 429243.182 4414538.259 60.373 429245.425 4414534.934 60.350 429247.657 4414531.640 60.339 429249.836 4414528.438 60.323 429252.080 4414525.146 60.312 429254.318 4414521.846 60.299 429256.509 4414518.534 60.290 429258.762 4414515.305 60.262 429261.053 4414512.026 60.239 429263.306 4414508.853 60.198 429265.600 4414505.697 60.198 429267.979 4414502.624 60.164 429270.416 4414499.579 60.143 429272.931 4414496.468 60.143 429275.423 4414493.540 60.108 429277.995 4414490.559 60.108 429280.672 4414487.708 60.067 429283.393 4414484.808 60.067 429285.334 4414482.740 60.067 429288.076 4414479.932 60.047 429290.905 4414477.210 59.999 429293.731 4414474.494 59.999 429296.582 4414471.797 59.989 429299.549 4414469.114 59.967 429302.458 4414466.581 59.942 429305.427 4414464.087 59.936 429308.452 4414461.634 59.923 429311.518 4414459.191 59.917 429314.696 4414456.762 59.913 429317.842 4414454.481 59.841 429321.019 4414452.237 59.811 429324.233 4414449.988 59.788 429327.518 4414447.705 59.788 429330.666 4414445.518 59.788 429333.974 4414443.459 59.741 429337.345 4414441.441 59.729 429340.741 4414439.429 59.729 429344.189 4414437.401 59.706 429347.557 4414435.579 59.689 429351.029 4414433.776 59.675 429354.501 4414431.982 59.675 429357.983 4414430.256 59.645 429361.605 4414428.558 59.639 429365.095 4414427.029 59.622 429368.727 4414425.464 59.615 429372.349 4414423.957 59.576 429375.994 4414422.529 59.524 429379.752 4414421.158 59.524 429383.323 4414419.854 59.524,,0,0,0,0,0
45,429404.570 4414420.612 59.494 429400.783 4414421.787 59.494 429397.085 4414422.953 59.530 429396.330 4414423.195 59.530 429393.047 4414424.244 59.530 429389.303 4414425.449 59.543 429385.600 4414426.698 59.547 429382.276 4414427.907 59.562 429378.536 4414429.326 59.571 429375.002 4414430.725 59.591 429371.483 4414432.202 59.639 429367.910 4414433.751 59.660 429364.654 4414435.175 59.660 429361.044 4414436.899 59.661 429357.707 4414438.563 59.683 429354.347 4414440.305 59.703 429350.983 4414442.058 59.703 429347.833 4414443.788 59.742 429344.345 4414445.746 59.742 429340.994 4414447.692 59.760 429337.732 4414449.704 59.787 429334.568 4414451.726 59.801 429331.539 4414453.679 59.801 429328.230 4414455.927 59.838 429325.099 4414458.115 59.838 429322.054 4414460.297 59.862 429319.051 4414462.513 59.880 429315.894 4414464.971 59.919 429312.908 4414467.341 59.919 429310.002 4414469.716 59.947 429307.156 4414472.101 59.947 429304.414 4414474.528 59.981 429301.443 4414477.207 59.992 429298.647 4414479.811 60.021 429295.887 4414482.436 60.021 429293.163 4414485.123 60.055 429290.477 4414487.842 60.070 429288.632 4414489.746 60.086 429285.942 4414492.635 60.096 429283.421 4414495.462 60.118 429280.900 4414498.372 60.127 429278.558 4414501.148 60.159 429276.021 4414504.240 60.159 429273.702 4414507.205 60.192 429271.432 4414510.164 60.205 429269.177 4414513.182 60.221 429266.970 4414516.205 60.221 429264.670 4414519.478 60.257 429262.474 4414522.643 60.269 429260.249 4414525.883 60.312 429258.021 4414529.169 60.332 429255.800 4414532.452 60.372 429253.622 4414535.679 60.372 429251.453 4414538.980 60.373 429249.193 4414542.310 60.426 429246.951 4414545.623 60.426 429244.713 4414548.949 60.449 429242.456 4414552.263 60.461 429240.227 4414555.575 60.483 429237.999 4414558.914 60.484 429235.776 4414562.240 60.510 429233.550 4414565.551 60.510 429231.309 4414568.872 60.534 429229.073 4414572.176 60.541 429226.815 4414575.514 60.565 429224.577 4414578.829 60.573 429222.348 4414582.135 60.588 429220.116 4414585.444 60.599 429217.878 4414588.743 60.621 429215.615 4414592.071 60.657 429215.450 4414592.314 60.657 429213.176 4414595.675 60.674 429210.938 4414598.990 60.686 429208.694 4414602.301 60.703 429206.453 4414605.622 60.735 429204.220 4414608.940 60.746 429201.978 4414612.271 60.764 429199.739 4414615.586 60.840 429197.502 4414618.896 60.859 429195.257 4414622.216 60.859 429193.013 4414625.527 60.874 429190.767 4414628.836 60.874 429188.518 4414632.164 60.892 429186.294 4414635.453 60.892 429184.039 4414638.782 60.904 429181.796 4414642.094 60.932 429179.556 4414645.405 60.932 429177.315 4414648.734 60.963 429175.112 4414652.019 61.007 429173.663 4414654.169 61.022 429171.430 4414657.482 61.022 429169.194 4414660.799 61.022 429166.932 4414664.126 61.046 429164.720 4414667.396 61.080 429162.489 4414670.716 61.080 429160.251 4414674.021 61.195 429157.973 4414677.357 61.195 429155.767 4414680.639 61.223 429153.531 4414683.970 61.223 429151.297 4414687.288 61.235 429149.045 4414690.626 61.235 429146.793 4414693.928 61.258 429144.528 4414697.254 61.258 429142.297 4414700.573 61.267 429140.082 4414703.858 61.284 429137.831 4414707.181 61.284 429135.575 4414710.496 61.347 429133.340 4414713.797 61.362 429131.221 4414716.920 61.391 429128.982 4414720.220 61.391 429126.732 4414723.533 61.398 429124.472 4414726.873 61.419 429122.237 4414730.190 61.484 429120.002 4414733.502 61.484 429117.771 4414736.809 61.499 429115.531 4414740.123 61.511 429113.289 4414743.430 61.531 429111.042 4414746.740 61.541 429108.847 4414750.084 61.537 429106.612 4414753.390 61.567 429104.387 4414756.680 61.567 429102.188 4414759.940 61.608 429099.972 4414763.270 61.621 429097.850 4414766.560 61.648 429095.780 4414769.851 61.648 429093.990 4414772.965 61.650 429092.321 4414776.048 61.666 429091.051 4414778.445 61.699 429089.292 4414781.906 61.721 429087.543 4414785.417 61.734 429085.835 4414788.943 61.763 429084.256 4414792.291 61.776 429082.592 4414795.928 61.782 429080.981 4414799.490 61.790 429079.434 4414802.982 61.821 429077.938 4414806.500 61.846 429076.671 4414809.768 61.868 429075.245 4414813.505 61.877 429074.035 4414816.995 61.888 429072.880 4414820.535 61.932 429071.758 4414824.213 61.948 429070.737 4414827.659 61.963 429069.672 4414831.515 61.981 429068.769 4414835.131 62.007 429067.921 4414838.763 62.010 429067.068 4414842.500 62.025 429066.501 4414845.347 62.038 429065.812 4414849.096 62.071 429065.187 4414852.904 62.076 429064.622 4414856.514 62.085 429064.134 4414860.110 62.102 429063.678 4414864.084 62.126 429063.291 4414867.952 62.233 429062.906 4414871.818 62.233 429062.546 4414875.722 62.241 429062.187 4414879.616 62.266 429061.821 4414883.600 62.266 429061.458 4414887.552 62.279 429061.084 4414891.595 62.279 429060.717 4414895.531 62.302 429060.345 4414899.514 62.302 429059.970 4414903.508 62.315 429059.588 4414907.555 62.315 429059.189 4414911.591 62.335 429058.749 4414915.653 62.382 429058.553 4414917.192 62.395 429058.007 4414921.409 62.395 429057.434 4414925.368 62.419 429056.838 4414929.435 62.419 429056.165 4414933.517 62.451 429055.430 4414937.649 62.469 429054.625 4414941.872 62.486 429053.843 4414945.795 62.486 429052.960 4414949.864 62.511 429052.034 4414953.932 62.529 429051.066 4414957.967 62.535 429050.031 4414962.103 62.570 429049.031 4414965.976 62.579 429047.905 4414970.009 62.596 429046.749 4414974.040 62.600 429045.533 4414977.962 62.627 429044.254 4414981.926 62.654 429043.972 4414982.783 62.654 429042.512 4414987.113 62.684,,0,0,0,0,0
46,429056.821 4414946.378 62.443 429055.932 4414950.487 62.457 429054.989 4414954.594 62.493 429054.028 4414958.669 62.493 429052.997 4414962.872 62.520 429052.011 4414966.749 62.520 429050.838 4414970.817 62.562 429049.673 4414974.895 62.562 429048.443 4414978.839 62.591 429047.143 4414982.840 62.644 429046.872 4414983.646 62.644 429045.345 4414988.101 62.685,,0,0,0,0,0
47,429058.666 4414951.060 62.413 429057.954 4414955.258 62.432 429056.968 4414959.365 62.462 429055.920 4414963.630 62.473 429054.928 4414967.505 62.478 429053.769 4414971.624 62.514 429052.584 4414975.745 62.517 429051.331 4414979.710 62.541 429050.023 4414983.750 62.596 429049.774 4414984.510 62.596 429048.212 4414989.101 62.636,,0,0,0,0,0
48,429405.536 4414424.021 59.403 429401.726 4414425.079 59.412 429398.057 4414426.226 59.448 429397.227 4414426.505 59.467 429394.095 4414427.529 59.467 429390.383 4414428.779 59.489 429386.715 4414430.048 59.499 429383.509 4414431.206 59.513 429379.776 4414432.642 59.520 429376.296 4414434.025 59.540 429372.822 4414435.476 59.551 429369.282 4414437.026 59.584 429366.156 4414438.433 59.584 429362.534 4414440.132 59.603 429359.254 4414441.738 59.613 429355.926 4414443.413 59.632 429352.616 4414445.145 59.638 429349.564 4414446.822 59.660 429346.089 4414448.803 59.671 429342.786 4414450.761 59.690 429339.566 4414452.752 59.698 429336.440 4414454.704 59.717 429333.513 4414456.612 59.734 429330.203 4414458.858 59.776 429327.108 4414461.011 59.788 429324.116 4414463.143 59.806 429321.175 4414465.319 59.819 429318.021 4414467.780 59.859 429315.077 4414470.118 59.871 429312.221 4414472.447 59.879 429309.444 4414474.788 59.894 429306.772 4414477.152 59.924 429303.791 4414479.819 59.924 429301.034 4414482.392 59.953 429298.325 4414484.995 59.967 429295.650 4414487.660 60.005 429292.985 4414490.331 60.005 429291.216 4414492.182 60.034 429288.530 4414495.054 60.048 429286.030 4414497.820 60.063 429283.548 4414500.709 60.076 429281.272 4414503.405 60.102 429278.746 4414506.507 60.102 429276.479 4414509.428 60.136 429274.252 4414512.324 60.149 429272.028 4414515.283 60.172 429269.862 4414518.248 60.172 429267.558 4414521.517 60.209 429265.382 4414524.646 60.226 429263.180 4414527.878 60.253 429260.971 4414531.166 60.253 429258.763 4414534.447 60.291 429256.582 4414537.683 60.305 429254.382 4414540.946 60.329 429252.131 4414544.290 60.359 429249.899 4414547.609 60.359 429247.656 4414550.935 60.376 429245.406 4414554.258 60.388 429243.174 4414557.564 60.412 429240.932 4414560.899 60.420 429238.700 4414564.219 60.441 429236.473 4414567.527 60.441 429234.228 4414570.847 60.472 429231.996 4414574.150 60.483 429229.733 4414577.495 60.508 429227.492 4414580.808 60.519 429225.266 4414584.110 60.535 429223.035 4414587.418 60.547 429220.792 4414590.710 60.575 429218.530 4414594.046 60.608 429218.381 4414594.267 60.608 429216.101 4414597.643 60.620 429213.858 4414600.954 60.620 429211.614 4414604.266 60.647 429209.373 4414607.588 60.679 429207.139 4414610.907 60.698 429204.895 4414614.241 60.710 429202.658 4414617.557 60.724 429200.427 4414620.869 60.755 429198.182 4414624.192 60.755 429195.935 4414627.502 60.781 429193.691 4414630.811 60.794 429191.441 4414634.143 60.825 429189.222 4414637.427 60.833 429186.964 4414640.761 60.844 429184.723 4414644.074 60.886 429182.487 4414647.387 60.898 429180.236 4414650.715 60.912 429178.032 4414653.984 60.936 429176.576 4414656.143 60.952 429174.343 4414659.455 60.962 429172.106 4414662.770 60.971 429169.844 4414666.105 61.004 429167.639 4414669.363 61.024 429165.398 4414672.676 61.024 429163.168 4414675.984 61.049 429160.887 4414679.330 61.061 429158.688 4414682.603 61.100 429156.448 4414685.935 61.111 429154.208 4414689.248 61.123 429151.958 4414692.597 61.131 429149.703 4414695.895 61.165 429147.436 4414699.228 61.180 429145.208 4414702.550 61.198 429142.998 4414705.826 61.215 429140.748 4414709.153 61.224 429138.499 4414712.477 61.231 429136.276 4414715.781 61.261 429134.170 4414718.907 61.308 429131.941 4414722.210 61.308 429129.698 4414725.528 61.328 429127.434 4414728.876 61.349 429125.193 4414732.190 61.386 429122.961 4414735.502 61.386 429120.729 4414738.804 61.414 429118.488 4414742.118 61.426 429116.252 4414745.429 61.455 429114.014 4414748.744 61.467 429111.776 4414752.059 61.478 429109.543 4414755.364 61.505 429107.327 4414758.650 61.515 429105.143 4414761.897 61.529 429102.941 4414765.236 61.555 429100.835 4414768.508 61.576 429098.798 4414771.781 61.585 429097.028 4414774.772 61.603 429095.404 4414777.721 61.621 429094.163 4414780.076 61.654 429092.416 4414783.506 61.668 429090.710 4414787.014 61.684 429089.019 4414790.523 61.699 429087.486 4414793.800 61.724 429085.826 4414797.439 61.733 429084.226 4414800.978 61.740 429082.693 4414804.420 61.754 429081.229 4414807.898 61.788 429079.989 4414811.027 61.803 429078.553 4414814.760 61.816 429077.377 4414818.171 61.826 429076.274 4414821.646 61.865 429075.175 4414825.286 61.882 429074.187 4414828.622 61.900 429073.125 4414832.478 61.918 429072.237 4414836.018 61.949 429071.399 4414839.574 61.961 429070.558 4414843.265 61.971 429070.016 4414846.070 61.984 429069.313 4414849.762 62.007 429068.708 4414853.533 62.019 429068.146 4414857.045 62.034 429067.668 4414860.536 62.050 429067.193 4414864.508 62.077 429066.790 4414868.342 62.084 429066.399 4414872.177 62.093 429066.036 4414876.058 62.101 429065.679 4414879.928 62.136 429065.320 4414883.911 62.150 429064.966 4414887.856 62.176 429064.599 4414891.917 62.186 429064.236 4414895.840 62.208 429063.869 4414899.823 62.217 429063.492 4414903.820 62.242 429063.102 4414907.885 62.251 429062.686 4414911.935 62.278 429062.259 4414916.022 62.278 429062.080 4414917.595 62.304 429061.583 4414921.891 62.304 429061.062 4414925.857 62.343 429060.520 4414929.964 62.356 429059.934 4414934.101 62.377 429059.297 4414938.310 62.405 429058.577 4414942.646 62.408,,0,0,0,0,0
49,429382.181 4414416.419 59.465 429385.953 4414415.127 59.462 429389.756 4414413.918 59.442 429393.501 4414412.757 59.416 429394.010 4414412.602 59.416 429397.829 4414411.472 59.364 429401.664 4414410.354 59.336 429406.549 4414408.964 59.330,,0,0,0,0,0
50,429383.323 4414419.854 59.524 429387.054 4414418.519 59.511 429390.834 4414417.301 59.477 429394.434 4414416.198 59.454 429395.025 4414416.017 59.454 429398.803 4414414.875 59.403 429402.626 4414413.749 59.389 429406.288 4414412.623 59.371,,0,0,0,0,0
51,429040.236 4415045.962 62.739 429043.837 4415047.796 62.739 429047.496 4415049.347 62.736 429051.084 4415051.137 62.736 429054.658 4415052.933 62.710 429058.196 4415054.710 62.692 429059.121 4415055.173 62.692 429062.688 4415056.961 62.662 429066.250 4415058.750 62.662 429069.856 4415060.495 62.615 429073.434 4415062.232 62.600 429077.050 4415064.037 62.579 429079.419 4415065.224 62.579 429082.985 4415067.026 62.531 429086.534 4415068.820 62.502 429090.100 4415070.610 62.480 429093.637 4415072.375 62.464 429097.191 4415074.210 62.452 429100.609 4415076.016 62.436,,0,0,0,0,0
52,429070.256 4415069.176 62.681 429066.439 4415067.294 62.681 429062.850 4415065.496 62.749 429059.302 4415063.720 62.749 429055.748 4415061.941 62.749 429054.746 4415061.439 62.749 429051.258 4415059.693 62.749 429047.681 4415057.902 62.749 429044.082 4415056.100 62.760 429040.577 4415054.344 62.757 429036.919 4415052.509 62.757 429035.082 4415051.608 62.780,,0,0,0,0,0
53,429068.603 4415071.743 62.648 429065.088 4415069.980 62.648 429061.495 4415068.183 62.718 429057.954 4415066.412 62.718 429054.404 4415064.637 62.718 429053.372 4415064.121 62.718 429049.902 4415062.386 62.718 429046.325 4415060.598 62.718 429042.721 4415058.795 62.728 429039.231 4415057.049 62.725 429035.553 4415055.206 62.725 429033.659 4415054.203 62.737,,0,0,0,0,0
54,429045.565 4415044.325 62.674 429049.135 4415046.104 62.665 429052.712 4415047.900 62.648 429056.284 4415049.702 62.632 429059.846 4415051.490 62.632 429060.735 4415051.936 62.632 429064.307 4415053.728 62.598 429067.878 4415055.519 62.584 429071.479 4415057.267 62.535 429075.069 4415059.014 62.522 429078.662 4415060.803 62.519 429081.028 4415061.992 62.517 429084.599 4415063.792 62.465 429088.163 4415065.590 62.441 429091.733 4415067.386 62.441 429095.294 4415069.175 62.415 429098.839 4415071.026 62.403 429102.337 4415072.872 62.358,,0,0,0,0,0
55,429071.323 4415066.388 62.719 429067.785 4415064.616 62.727 429064.196 4415062.825 62.741 429060.641 4415061.047 62.741 429057.097 4415059.236 62.755 429056.128 4415058.743 62.755 429052.603 4415057.019 62.770 429049.023 4415055.234 62.789 429045.448 4415053.398 62.788 429036.573 4415048.888 62.825,,0,0,0,0,0
56,429127.313 4415098.842 62.368 429124.034 4415096.547 62.370 429120.903 4415094.306 62.385 429117.751 4415092.055 62.385 429114.549 4415089.901 62.395 429111.653 4415088.015 62.401 429108.249 4415085.916 62.395 429105.028 4415083.978 62.424 429101.740 4415082.079 62.430 429098.330 4415080.159 62.444 429095.012 4415078.417 62.460 429091.462 4415076.573 62.505 429087.988 4415074.776 62.522 429084.446 4415072.961 62.561 429080.912 4415071.181 62.579 429077.341 4415069.398 62.625 429074.967 4415068.216 62.625 429071.323 4415066.388 62.719,,0,0,0,0,0
57,429125.020 4415101.870 62.314 429121.836 4415099.448 62.314 429118.787 4415097.185 62.326 429115.660 4415094.977 62.341 429112.495 4415092.854 62.356 429109.763 4415091.065 62.356 429106.353 4415088.974 62.342 429103.200 4415087.089 62.382 429099.983 4415085.211 62.392 429096.620 4415083.268 62.392 429093.375 4415081.578 62.409 429089.803 4415079.778 62.470 429086.315 4415078.078 62.489 429082.723 4415076.376 62.505,,0,0,0,0,0
58,429102.337 4415072.872 62.358 429105.830 4415074.790 62.349 429109.296 4415076.714 62.345 429112.708 4415078.720 62.294 429116.120 4415080.807 62.294 429119.419 4415082.896 62.282 429122.708 4415085.130 62.221 429125.917 4415087.482 62.207 429129.116 4415089.837 62.207 429132.315 4415092.239 62.195 429135.438 4415094.621 62.195 429136.424 4415095.398 62.195,,0,0,0,0,0
59,429100.609 4415076.016 62.436 429104.084 4415077.901 62.404 429107.488 4415079.791 62.390 429110.812 4415081.779 62.355 429114.207 4415083.894 62.340 429117.342 4415085.884 62.329 429120.608 4415088.064 62.264 429123.802 4415090.360 62.264 429126.929 4415092.725 62.246 429133.362 4415097.623 62.246,,0,0,0,0,0
60,429159.698 4415117.553 62.011 429160.897 4415119.077 62.005 429163.448 4415122.158 61.968 429166.000 4415125.238 61.968 429168.485 4415128.238 61.968 429170.920 4415131.413 61.977 429173.248 4415134.580 61.898 429175.512 4415137.842 61.879 429177.760 4415141.150 61.894 429179.870 4415144.466 61.877 429181.927 4415147.864 61.790 429183.955 4415151.281 61.776 429185.936 4415154.723 61.781 429187.842 4415158.222 61.769 429189.682 4415161.725 61.739 429191.505 4415165.242 61.733 429193.253 4415168.840 61.719 429194.883 4415172.427 61.666 429196.449 4415176.063 61.633 429197.976 4415179.708 61.593 429199.392 4415183.409 61.522 429200.732 4415187.177 61.498 429201.957 4415190.905 61.477 429203.122 4415194.681 61.555 429204.187 4415198.492 61.569 429205.152 4415202.355 61.525 429206.076 4415206.246 61.525 429206.946 4415210.110 61.524 429207.775 4415214.005 61.516 429208.588 4415217.929 61.483 429209.397 4415221.836 61.474 429210.210 4415225.753 61.460 429210.997 4415229.687 61.437 429211.797 4415233.589 61.427 429212.589 4415237.516 61.419 429213.378 4415241.437 61.396 429214.171 4415245.358 61.378 429214.956 4415249.286 61.367 429215.285 4415250.931 61.367 429216.106 4415254.891 61.328 429216.413 4415256.368 61.328 429217.235 4415260.283 61.222 429218.040 4415264.201 61.222 429218.841 4415268.120 61.269 429219.637 4415272.040 61.269 429220.419 4415275.963 61.206 429221.201 4415279.885 61.206 429221.992 4415283.806 61.192 429222.796 4415287.725 61.161 429223.581 4415291.647 61.161 429224.366 4415295.569 61.161 429225.160 4415299.489 61.153 429225.874 4415303.398 61.159 429226.555 4415307.367 61.161 429227.203 4415311.317 61.161 429228.004 4415315.234 61.135 429228.892 4415319.134 61.111 429229.844 4415323.031 61.102 429230.631 4415326.951 61.087 429231.397 4415330.877 61.072 429232.232 4415334.796 61.064 429232.945 4415338.109 61.061 429232.998 4415338.351 61.061 429233.782 4415342.276 61.041 429234.574 4415346.194 61.025 429235.368 4415350.115 61.026 429236.158 4415354.034 61.014 429236.945 4415357.956 61.014 429237.725 4415361.880 60.989 429238.508 4415365.809 60.980 429239.305 4415369.725 60.962 429240.115 4415373.642 60.954 429240.897 4415377.565 60.942 429241.682 4415381.488 60.936 429242.469 4415385.406 60.916 429243.258 4415389.329 60.904 429244.052 4415393.249 60.900 429244.850 4415397.169 60.900 429245.636 4415401.097 60.890 429246.435 4415405.016 60.888 429247.249 4415408.981 60.886 429248.073 4415412.951 60.882 429248.933 4415416.860 60.882 429249.797 4415420.819 60.880 429250.505 4415424.013 60.879,,0,0,0,0,0
61,429165.405 4415144.533 61.906 429163.243 4415141.449 61.919 429161.191 4415138.657 61.932 429158.745 4415135.484 61.968 429156.753 4415132.975 61.984 429154.219 4415129.880 62.002 429151.633 4415126.828 62.012 429150.676 4415125.772 62.027,,0,0,0,0,0
62,429157.967 4415121.528 62.070 429160.517 4415124.611 62.070 429163.247 4415127.542 62.088 429165.565 4415130.410 62.013 429168.016 4415133.575 62.017 429170.260 4415136.632 61.938 429172.525 4415139.819 61.938 429174.751 4415143.143 61.938 429176.763 4415146.351 61.926 429178.806 4415149.696 61.835 429180.812 4415153.062 61.835 429182.751 4415156.459 61.829 429184.659 4415159.920 61.813 429186.452 4415163.351 61.787 429188.241 4415166.793 61.787 429189.982 4415170.394 61.761 429191.571 4415173.865 61.699 429193.109 4415177.424 61.678 429194.605 4415180.975 61.646 429196.002 4415184.599 61.607 429197.329 4415188.372 61.547 429198.507 4415191.954 61.538 429199.653 4415195.632 61.608 429200.715 4415199.355 61.608 429201.665 4415203.181 61.567 429202.589 4415207.073 61.556 429203.436 4415210.860 61.550 429204.260 4415214.721 61.525 429205.079 4415218.657 61.507 429205.888 4415222.545 61.507 429206.694 4415226.463 61.493 429207.501 4415230.419 61.463 429208.278 4415234.289 61.463 429209.069 4415238.230 61.463 429209.867 4415242.149 61.380 429210.656 4415246.070 61.361 429211.446 4415250.009 61.361 429211.778 4415251.663 61.361 429212.603 4415255.714 61.338 429212.883 4415257.082 61.338 429213.689 4415261.000 61.323 429214.495 4415264.918 61.323 429215.295 4415268.837 61.362 429216.090 4415272.757 61.362 429216.870 4415276.680 61.299 429217.664 4415280.601 61.285 429218.433 4415284.526 61.272 429219.231 4415288.446 61.231 429220.027 4415292.366 61.215 429220.827 4415296.285 61.215 429221.608 4415300.208 61.218 429222.299 4415304.067 61.224 429222.970 4415308.088 61.200 429223.670 4415312.028 61.194 429224.450 4415315.947 61.179 429225.314 4415319.847 61.157 429226.301 4415323.754 61.156 429227.109 4415327.666 61.134 429227.873 4415331.592 61.118 429228.716 4415335.524 61.118 429229.389 4415338.670 61.098 429229.470 4415339.058 61.098 429230.261 4415342.988 61.086 429231.051 4415346.901 61.055 429231.845 4415350.825 61.055 429232.636 4415354.739 61.048 429233.423 4415358.661 61.048 429234.208 4415362.584 61.034 429235.002 4415366.525 61.035 429235.795 4415370.436 61.025 429236.599 4415374.353 61.017 429237.382 4415378.275 60.991 429238.164 4415382.199 60.991 429238.942 4415386.113 60.966 429239.738 4415390.038 60.950 429240.539 4415393.956 60.946 429241.336 4415397.876 60.938 429242.124 4415401.817 60.933 429242.921 4415405.735 60.932 429243.744 4415409.796 60.933 429244.562 4415413.871 60.931 429245.338 4415417.803 60.933 429246.062 4415421.886 60.921 429246.634 4415425.138 60.921 429246.883 4415426.481 60.930 429247.369 4415428.994 60.941 429248.114 4415432.762 60.947 429248.874 4415436.525 60.951 429249.650 4415440.352 60.951 429250.451 4415444.271 60.948 429251.228 4415448.120 60.954 429252.004 4415452.042 60.965 429252.803 4415455.957 60.987,,0,0,0,0,0
63,429168.401 4415142.550 61.953 429166.202 4415139.418 61.966 429164.075 4415136.509 61.978 429161.633 4415133.335 62.009 429159.530 4415130.652 62.042 429157.041 4415127.519 62.050 429153.541 4415123.382 62.069,,0,0,0,0,0
64,429183.675 4415177.292 61.731 429182.210 4415174.089 61.731 429180.453 4415170.495 61.748 429178.791 4415167.206 61.747 429177.063 4415163.974 61.782 429175.217 4415160.567 61.791 429173.357 4415157.287 61.817 429171.457 4415154.008 61.825 429169.451 4415150.788 61.858 429167.618 4415147.866 61.873 429165.405 4415144.533 61.906,,0,0,0,0,0
65,429254.115 4415484.584 61.029 429253.911 4415483.564 61.029 429252.541 4415477.885 61.023 429251.514 4415472.813 61.005 429250.654 4415468.588 60.986 429249.870 4415464.720 60.981 429249.075 4415460.800 60.971 429248.280 4415456.872 60.966 429247.485 4415452.960 60.951 429246.688 4415449.043 60.948 429245.915 4415445.240 60.944 429245.140 4415441.315 60.951 429244.372 4415437.548 60.935 429243.628 4415433.888 60.935 429242.889 4415430.231 60.915 429242.632 4415428.952 60.915 429242.129 4415426.447 60.915 429241.478 4415423.196 60.930 429240.627 4415419.038 60.930 429239.819 4415415.115 60.926 429238.965 4415410.907 60.924 429238.127 4415406.716 60.936 429237.340 4415402.796 60.943 429236.528 4415398.843 60.953 429235.736 4415394.922 60.966 429234.939 4415391.004 60.977 429234.145 4415387.074 60.987 429232.573 4415379.247 61.022 429217.599 4415304.947 61.227 429216.837 4415301.173 61.227 429212.861 4415281.572 61.293 429212.085 4415277.648 61.317 429208.914 4415261.966 61.371 429208.114 4415258.047 61.383 429207.865 4415256.826 61.383 429207.020 4415252.656 61.401 429206.706 4415250.986 61.416 429205.939 4415247.026 61.446 429205.146 4415243.106 61.446 429204.304 4415239.196 61.465 429203.491 4415235.242 61.504 429202.719 4415231.420 61.504 429201.911 4415227.429 61.514 429201.103 4415223.511 61.517 429200.308 4415219.647 61.546 429199.496 4415215.691 61.544 429198.699 4415211.872 61.562 429197.870 4415208.191 61.588 429196.897 4415204.311 61.623 429195.909 4415200.548 61.615 429194.893 4415196.938 61.605 429193.781 4415193.390 61.597 429192.634 4415190.021 61.653 429191.300 4415186.250 61.681 429189.955 4415182.722 61.697 429188.539 4415179.286 61.713 429187.003 4415175.848 61.766 429185.483 4415172.533 61.778 429183.747 4415168.929 61.782 429182.036 4415165.573 61.785 429180.262 4415162.267 61.842 429178.407 4415158.828 61.846 429176.509 4415155.501 61.867 429174.578 4415152.177 61.867 429172.538 4415148.915 61.900 429170.623 4415145.876 61.919 429168.401 4415142.550 61.953,,0,0,0,0,0
66,429250.703 4415486.881 60.972 429250.498 4415485.863 60.972 429249.157 4415478.995 60.965 429248.028 4415473.598 60.950 429247.173 4415469.279 60.928 429246.380 4415465.429 60.921 429245.579 4415461.510 60.915 429244.778 4415457.581 60.909 429243.982 4415453.671 60.900 429243.182 4415449.756 60.895 429242.420 4415445.986 60.889 429241.633 4415442.064 60.886 429240.882 4415438.341 60.882 429240.156 4415434.760 60.879 429239.435 4415431.184 60.861 429239.368 4415430.849 60.861 429238.685 4415427.448 60.864 429238.027 4415424.183 60.870 429237.170 4415419.944 60.876 429236.373 4415416.018 60.874 429235.499 4415411.712 60.873 429234.633 4415407.431 60.894 429233.841 4415403.513 60.894 429233.025 4415399.548 60.910 429232.233 4415395.627 60.926 429231.441 4415391.708 60.932 429230.649 4415387.774 60.945 429229.869 4415383.877 60.945 429229.076 4415379.953 60.978 429228.291 4415376.031 60.986 429227.506 4415372.112 61.003 429226.717 4415368.217 61.003 429225.917 4415364.244 61.025 429225.126 4415360.321 61.034 429224.331 4415356.401 61.060 429223.539 4415352.498 61.077 429222.739 4415348.569 61.077 429221.965 4415344.665 61.087 429221.165 4415340.724 61.102 429221.016 4415339.992 61.102 429220.464 4415337.233 61.120 429219.676 4415333.257 61.120 429218.880 4415329.337 61.135 429218.085 4415325.431 61.141 429217.282 4415321.449 61.159 429216.498 4415317.541 61.167 429215.713 4415313.629 61.182 429214.918 4415309.709 61.186 429214.091 4415305.604 61.188 429213.347 4415301.879 61.194 429212.556 4415297.958 61.214 429211.744 4415294.041 61.239 429210.974 4415290.116 61.270 429210.186 4415286.194 61.270 429209.366 4415282.279 61.273 429208.586 4415278.356 61.287 429207.805 4415274.433 61.287 429206.999 4415270.515 61.306 429206.198 4415266.596 61.314 429205.406 4415262.675 61.346 429204.613 4415258.755 61.356 429204.387 4415257.643 61.356 429203.523 4415253.386 61.374 429203.182 4415251.712 61.374 429202.380 4415247.748 61.398 429201.592 4415243.826 61.404 429200.801 4415239.906 61.423 429199.993 4415235.938 61.445 429199.228 4415232.151 61.456 429198.422 4415228.133 61.469 429197.617 4415224.215 61.472 429196.821 4415220.371 61.501 429196.001 4415216.402 61.514 429195.189 4415212.623 61.535 429194.378 4415209.018 61.551 429193.432 4415205.132 61.582 429192.423 4415201.414 61.597 429191.390 4415197.899 61.591 429190.302 4415194.447 61.602 429189.200 4415191.227 61.632 429187.863 4415187.457 61.651 429186.539 4415184.006 61.678 429185.188 4415180.651 61.678 429183.675 4415177.292 61.731,,0,0,0,0,0
67,429209.703 4415265.887 61.351 429210.503 4415269.806 61.349 429211.296 4415273.727 61.337,,0,0,0,0,0
68,429213.687 4415285.486 61.291 429214.474 4415289.408 61.284 429215.265 4415293.329 61.284 429216.052 4415297.251 61.245,,0,0,0,0,0
69,429218.417 4415309.005 61.232 429219.211 4415312.925 61.216 429220.002 4415316.838 61.202 429220.788 4415320.750 61.199 429221.588 4415324.716 61.184 429222.383 4415328.626 61.178 429223.170 4415332.547 61.163 429223.963 4415336.508 61.163 429224.550 4415339.434 61.145 429224.670 4415340.021 61.145 429225.469 4415343.957 61.123 429226.252 4415347.864 61.122 429227.048 4415351.791 61.106 429227.837 4415355.699 61.093 429228.630 4415359.620 61.075 429229.418 4415363.543 61.066 429230.214 4415367.503 61.048 429231.001 4415371.405 61.047 429231.789 4415375.324 61.038 429233.366 4415383.170 60.996,,0,0,0,0,0
70,429253.418 4415443.637 60.909 429254.207 4415447.514 60.926 429254.970 4415451.440 60.926 429255.749 4415455.360 60.947,,0,0,0,0,0
71,429256.344 4415443.012 60.868 429257.139 4415446.918 60.889 429257.922 4415450.840 60.894 429258.708 4415454.761 60.905,,0,0,0,0,0
72,429252.803 4415455.957 60.987 429253.611 4415459.879 60.996 429254.405 4415463.799 61.014 429255.141 4415467.698 61.035 429256.000 4415471.802 61.042 429256.957 4415476.435 61.034 429258.887 4415485.660 61.063,,0,0,0,0,0
73,429255.749 4415455.360 60.947 429256.550 4415459.282 60.957 429257.337 4415463.204 60.978 429258.119 4415467.106 60.996 429258.937 4415471.140 61.011 429259.815 4415475.497 61.020 429260.538 4415479.102 61.043 429260.747 4415480.118 61.043 429261.288 4415482.789 61.043,,0,0,0,0,0
74,429258.708 4415454.761 60.905 429259.500 4415458.683 60.929 429260.289 4415462.604 60.937 429261.085 4415466.518 60.947 429261.883 4415470.476 60.971 429262.727 4415474.542 60.996 429263.391 4415477.181 61.011 429263.678 4415478.144 61.011 429264.107 4415479.419 61.011,,0,0,0,0,0
75,429581.413 4415086.823 60.373 429583.594 4415083.378 60.381 429585.838 4415079.947 60.398 429588.041 4415076.608 60.413 429590.291 4415073.244 60.425 429592.559 4415069.903 60.430 429594.868 4415066.568 60.438 429597.235 4415063.262 60.453,,0,0,0,0,0
76,429584.464 4415088.721 60.428 429586.623 4415085.311 60.428 429588.839 4415081.926 60.442 429591.040 4415078.586 60.457 429593.276 4415075.243 60.473 429595.533 4415071.919 60.479 429597.827 4415068.611 60.486 429600.163 4415065.326 60.495,,0,0,0,0,0
77,429601.867 4415071.399 60.510 429599.599 4415074.675 60.490 429597.352 4415077.972 60.478 429595.120 4415081.276 60.469 429592.912 4415084.611 60.462 429590.754 4415087.947 60.442 429588.614 4415091.301 60.433 429586.500 4415094.675 60.418 429584.398 4415098.078 60.418 429582.365 4415101.500 60.395 429580.333 4415104.924 60.388 429578.334 4415108.383 60.371 429576.364 4415111.833 60.344 429574.395 4415115.315 60.344 429572.492 4415118.795 60.335 429570.619 4415122.315 60.309 429568.761 4415125.858 60.287 429566.930 4415129.392 60.287 429565.611 4415131.935 60.287 429563.848 4415135.510 60.284 429562.093 4415139.089 60.258 429560.362 4415142.672 60.249 429558.631 4415146.278 60.249 429556.980 4415149.895 60.234 429555.348 4415153.526 60.212 429553.737 4415157.182 60.204 429552.143 4415160.836 60.185 429550.555 4415164.508 60.185 429549.009 4415168.192 60.165 429547.460 4415171.871 60.160 429545.915 4415175.559 60.145 429544.374 4415179.248 60.139 429542.833 4415182.939 60.121 429541.305 4415186.611 60.111 429539.852 4415190.177 60.094 429538.305 4415193.844 60.087 429536.771 4415197.534 60.087 429535.243 4415201.228 60.084 429533.713 4415204.930 60.063 429532.183 4415208.626 60.052 429530.636 4415212.323 60.046 429529.555 4415214.901 60.041 429529.438 4415215.181 60.041 429527.899 4415218.870 60.029 429526.360 4415222.559 60.040 429524.822 4415226.255 60.050 429523.286 4415229.948 60.057 429521.743 4415233.644 60.057 429520.187 4415237.335 60.049 429518.623 4415241.028 60.044 429517.037 4415244.716 60.032 429515.433 4415248.400 60.019 429513.787 4415252.046 59.995 429512.111 4415255.714 59.979 429510.883 4415258.279 59.959 429509.135 4415261.910 59.954 429507.318 4415265.504 59.968 429505.485 4415269.090 59.974 429503.576 4415272.636 60.002 429501.634 4415276.134 60.019 429499.615 4415279.635 60.026 429497.561 4415283.111 60.038 429495.451 4415286.538 60.044 429493.286 4415289.931 60.047 429491.111 4415293.289 60.047 429488.864 4415296.643 60.046 429486.589 4415299.960 60.050 429484.271 4415303.220 60.066 429481.902 4415306.537 60.066 429481.193 4415307.531 60.066 429478.739 4415310.720 60.084 429476.269 4415313.898 60.110 429473.767 4415317.058 60.116 429471.233 4415320.187 60.125 429468.652 4415323.243 60.131 429466.010 4415326.253 60.154 429464.301 4415328.208 60.154 429461.593 4415331.170 60.172 429458.843 4415334.108 60.181 429456.044 4415336.998 60.206 429453.224 4415339.870 60.210 429450.389 4415342.692 60.220 429447.500 4415345.496 60.225 429444.587 4415348.263 60.246 429441.679 4415351.014 60.258 429438.745 4415353.743 60.279 429435.814 4415356.464 60.296 429432.870 4415359.178 60.305 429429.925 4415361.896 60.323 429426.979 4415364.602 60.333 429424.030 4415367.304 60.344 429422.759 4415368.468 60.344 429419.815 4415371.194 60.361 429416.877 4415373.907 60.377 429413.934 4415376.619 60.401 429410.993 4415379.328 60.401 429408.047 4415382.033 60.407 429405.110 4415384.750 60.429 429402.164 4415387.463 60.468 429399.220 4415390.165 60.476 429396.274 4415392.869 60.489 429393.332 4415395.580 60.489 429390.393 4415398.290 60.517 429387.452 4415401.004 60.528 429384.510 4415403.713 60.546 429381.566 4415406.421 60.548 429378.626 4415409.133 60.561 429375.684 4415411.846 60.579 429372.744 4415414.555 60.610 429369.804 4415417.265 60.629 429366.861 4415419.975 60.629 429363.920 4415422.688 60.636 429360.983 4415425.398 60.645 429359.216 4415427.028 60.645 429356.269 4415429.743 60.659 429353.322 4415432.446 60.660 429350.373 4415435.160 60.680 429347.427 4415437.866 60.719 429344.484 4415440.534 60.736 429341.530 4415443.260 60.739 429338.596 4415445.969 60.760 429335.653 4415448.679 60.801 429332.715 4415451.392 60.801 429329.772 4415454.102 60.835 429326.827 4415456.810 60.853 429323.857 4415459.492 60.886 429320.888 4415462.168 60.893 429317.896 4415464.824 60.892 429314.894 4415467.475 60.886 429311.945 4415470.180 60.930 429308.986 4415472.872 60.953,,0,0,0,0,0
78,429282.128 4415486.325 61.021 429286.566 4415482.315 60.984 429289.428 4415479.691 60.987 429292.396 4415476.994 60.939 429295.338 4415474.296 60.895 429298.285 4415471.596 60.895 429300.476 4415469.581 60.893 429303.453 4415466.838 60.882 429306.390 4415464.122 60.874 429309.315 4415461.405 60.866 429312.240 4415458.702 60.846 429315.183 4415455.994 60.834 429318.151 4415453.293 60.791 429321.104 4415450.603 60.791 429324.036 4415447.887 60.767 429326.963 4415445.164 60.728 429329.912 4415442.461 60.716 429332.859 4415439.758 60.693 429335.814 4415437.026 60.657 429338.706 4415434.367 60.646 429341.723 4415431.594 60.633 429344.667 4415428.885 60.618 429347.583 4415426.188 60.618 429350.528 4415423.473 60.611 429353.452 4415420.783 60.611 429355.215 4415419.163 60.606 429358.161 4415416.435 60.584 429361.094 4415413.726 60.568 429364.037 4415411.016 60.562 429366.985 4415408.304 60.535 429369.931 4415405.587 60.526 429372.866 4415402.882 60.494 429375.809 4415400.175 60.494 429378.756 4415397.471 60.467 429381.698 4415394.754 60.457 429384.635 4415392.050 60.435 429387.583 4415389.336 60.426 429390.530 4415386.631 60.418 429393.476 4415383.923 60.391 429396.427 4415381.201 60.382 429399.356 4415378.500 60.371 429402.293 4415375.791 60.345 429405.234 4415373.080 60.323 429408.185 4415370.369 60.316 429411.119 4415367.663 60.293 429414.061 4415364.947 60.283 429416.970 4415362.270 60.263 429418.300 4415361.044 60.263 429421.245 4415358.335 60.259 429424.182 4415355.619 60.258 429427.099 4415352.924 60.227 429430.027 4415350.219 60.215 429432.965 4415347.505 60.191 429435.882 4415344.801 60.185 429438.794 4415342.080 60.175 429441.657 4415339.377 60.172 429444.466 4415336.666 60.164 429447.316 4415333.860 60.159 429450.034 4415331.053 60.135 429452.748 4415328.230 60.135 429455.405 4415325.360 60.114 429458.050 4415322.425 60.107 429459.537 4415320.726 60.100 429462.156 4415317.720 60.093 429464.744 4415314.670 60.088 429467.227 4415311.658 60.085 429469.634 4415308.602 60.072 429472.037 4415305.523 60.065 429474.389 4415302.398 60.053 429475.159 4415301.333 60.046 429477.340 4415298.326 60.037 429479.650 4415295.060 60.032 429481.880 4415291.836 60.030 429484.042 4415288.635 60.030 429486.220 4415285.280 60.028 429488.323 4415281.983 60.028 429490.366 4415278.652 60.018 429492.344 4415275.332 60.008 429494.238 4415271.985 59.971 429496.189 4415268.493 59.966 429498.034 4415265.058 59.960 429499.833 4415261.598 59.942 429501.568 4415258.106 59.935 429503.281 4415254.612 59.934 429504.476 4415252.092 59.943 429506.118 4415248.578 59.953 429507.753 4415244.927 59.965 429509.332 4415241.322 59.968 429510.879 4415237.693 59.972 429512.412 4415234.039 59.986 429513.934 4415230.365 59.986 429515.461 4415226.686 59.989 429516.998 4415222.994 59.971 429518.530 4415219.311 59.971 429520.071 4415215.609 59.984 429521.536 4415212.110 59.998 429521.621 4415211.910 59.998 429522.827 4415209.035 60.011 429524.353 4415205.367 60.026 429525.884 4415201.672 60.028 429527.406 4415197.996 60.024 429528.944 4415194.293 60.022 429530.484 4415190.584 60.014 429532.040 4415186.821 60.014 429533.436 4415183.453 60.024 429535.006 4415179.682 60.024 429536.538 4415175.987 60.052 429538.074 4415172.284 60.061 429539.618 4415168.590 60.093 429541.177 4415164.875 60.108 429542.749 4415161.176 60.117 429544.309 4415157.493 60.117 429545.922 4415153.780 60.139 429547.547 4415150.106 60.165 429549.214 4415146.390 60.174 429550.923 4415142.675 60.195 429552.636 4415139.061 60.208 429554.422 4415135.395 60.228 429556.213 4415131.762 60.236 429558.033 4415128.144 60.241 429559.359 4415125.541 60.244 429561.232 4415121.924 60.257 429563.089 4415118.382 60.264 429565.004 4415114.817 60.284 429566.983 4415111.201 60.293 429568.948 4415107.716 60.319 429570.969 4415104.150 60.319 429572.994 4415100.678 60.332 429575.069 4415097.179 60.341 429577.172 4415093.691 60.349 429579.255 4415090.277 60.365 429581.413 4415086.823 60.373,,0,0,0,0,0
79,429284.575 4415489.073 61.043 429288.969 4415485.014 61.032 429291.870 4415482.340 61.012 429294.827 4415479.639 60.975 429297.770 4415476.936 60.944 429300.719 4415474.236 60.941 429302.922 4415472.210 60.936 429305.877 4415469.481 60.923 429308.813 4415466.765 60.915 429311.745 4415464.049 60.898 429314.677 4415461.340 60.892 429317.621 4415458.632 60.882 429320.583 4415455.936 60.840 429323.539 4415453.244 60.840 429326.474 4415450.528 60.807 429329.403 4415447.806 60.762 429332.352 4415445.103 60.760 429335.297 4415442.397 60.746 429338.237 4415439.669 60.710 429341.154 4415436.980 60.704 429344.139 4415434.250 60.682 429347.085 4415431.545 60.654 429350.014 4415428.839 60.654 429352.957 4415426.127 60.650 429355.893 4415423.428 60.650 429357.658 4415421.803 60.647 429360.597 4415419.080 60.631 429363.535 4415416.370 60.615 429366.477 4415413.661 60.603 429369.420 4415410.947 60.576 429372.365 4415408.235 60.565 429375.306 4415405.530 60.532 429378.249 4415402.822 60.532 429381.196 4415400.117 60.505 429384.136 4415397.402 60.499 429387.075 4415394.694 60.476 429390.020 4415391.982 60.472 429392.966 4415389.277 60.464 429395.913 4415386.572 60.439 429398.860 4415383.856 60.422 429401.795 4415381.149 60.418 429404.734 4415378.440 60.391 429407.678 4415375.731 60.369 429410.620 4415373.016 60.355 429413.556 4415370.306 60.337 429416.497 4415367.592 60.327 429419.426 4415364.899 60.301 429420.731 4415363.700 60.301 429423.676 4415360.992 60.296 429426.611 4415358.275 60.292 429429.540 4415355.569 60.270 429432.474 4415352.861 60.262 429435.410 4415350.143 60.238 429438.331 4415347.426 60.227 429441.245 4415344.696 60.218 429444.126 4415341.963 60.211 429446.972 4415339.216 60.200 429449.826 4415336.413 60.196 429452.585 4415333.577 60.169 429455.340 4415330.730 60.169 429458.026 4415327.821 60.147 429460.689 4415324.867 60.140 429462.272 4415323.060 60.133 429464.895 4415320.049 60.129 429467.484 4415317.000 60.124 429469.999 4415313.946 60.117 429472.443 4415310.845 60.098 429474.878 4415307.726 60.085 429477.252 4415304.558 60.065 429478.009 4415303.532 60.065 429480.277 4415300.399 60.052 429482.597 4415297.141 60.052 429484.847 4415293.878 60.049 429487.047 4415290.613 60.053 429489.220 4415287.255 60.048 429491.342 4415283.913 60.044 429493.421 4415280.545 60.038 429495.438 4415277.163 60.032 429497.371 4415273.743 59.995 429499.319 4415270.249 59.981 429501.185 4415266.763 59.971 429503.008 4415263.255 59.960 429504.771 4415259.716 59.954 429506.514 4415256.172 59.960 429507.724 4415253.633 59.976 429509.378 4415250.052 59.994 429511.006 4415246.398 60.006 429512.604 4415242.764 60.011 429514.170 4415239.111 60.019 429515.718 4415235.441 60.032 429517.251 4415231.758 60.034 429518.784 4415228.072 60.034 429520.317 4415224.377 60.020 429521.849 4415220.688 60.012 429523.387 4415216.990 60.017 429524.931 4415213.295 60.040 429524.932 4415213.292 60.040 429526.135 4415210.428 60.040 429527.667 4415206.746 60.060 429529.199 4415203.051 60.071 429530.727 4415199.366 60.066 429532.264 4415195.668 60.066 429533.798 4415191.966 60.061 429535.341 4415188.239 60.061 429536.770 4415184.791 60.076 429538.319 4415181.060 60.084 429539.859 4415177.369 60.103 429541.400 4415173.673 60.111 429542.945 4415169.982 60.136 429544.499 4415166.282 60.152 429546.063 4415162.591 60.162 429547.624 4415158.908 60.162 429549.229 4415155.220 60.184 429550.849 4415151.554 60.210 429552.500 4415147.873 60.217 429554.188 4415144.201 60.234 429555.895 4415140.584 60.234 429557.667 4415136.958 60.265 429559.445 4415133.349 60.272 429561.252 4415129.754 60.275 429562.563 4415127.170 60.275 429564.428 4415123.594 60.294 429566.284 4415120.051 60.305 429568.187 4415116.508 60.325 429570.135 4415112.950 60.334 429572.095 4415109.463 60.347 429574.097 4415105.947 60.358 429576.118 4415102.486 60.377 429578.172 4415099.017 60.387 429580.249 4415095.559 60.395 429582.321 4415092.138 60.399 429584.464 4415088.721 60.428,,0,0,0,0,0
80,429604.834 4415073.446 60.463 429602.581 4415076.696 60.444 429600.342 4415079.974 60.444 429598.124 4415083.256 60.424 429595.916 4415086.592 60.416 429593.791 4415089.885 60.389 429591.678 4415093.208 60.380 429589.587 4415096.548 60.373 429587.491 4415099.955 60.362 429585.468 4415103.337 60.338 429583.455 4415106.730 60.331 429581.459 4415110.179 60.318 429579.523 4415113.586 60.302 429577.576 4415117.080 60.292 429575.688 4415120.494 60.282 429573.818 4415123.986 60.260 429571.952 4415127.525 60.253 429570.141 4415131.025 60.248 429568.842 4415133.551 60.246 429567.088 4415137.100 60.237 429565.345 4415140.655 60.209 429563.634 4415144.201 60.198 429561.904 4415147.808 60.198 429560.270 4415151.380 60.183 429558.655 4415154.975 60.163 429557.043 4415158.621 60.158 429555.458 4415162.251 60.146 429553.875 4415165.924 60.146 429552.325 4415169.596 60.133 429550.790 4415173.264 60.127 429549.246 4415176.951 60.114 429547.704 4415180.634 60.106 429546.165 4415184.326 60.088 429544.654 4415187.955 60.076 429543.147 4415191.592 60.050 429541.639 4415195.234 60.036 429540.112 4415198.917 60.034 429538.583 4415202.605 60.034 429537.042 4415206.315 60.024 429535.506 4415210.008 60.011 429533.959 4415213.721 60.014 429532.972 4415216.091 60.014 429532.770 4415216.575 60.014 429531.229 4415220.257 60.002 429529.693 4415223.942 60.010 429528.154 4415227.644 60.017 429526.619 4415231.338 60.029 429525.073 4415235.042 60.029 429523.507 4415238.743 60.019 429521.929 4415242.452 60.015 429520.327 4415246.166 60.001 429518.704 4415249.880 59.992 429517.051 4415253.522 59.968 429515.350 4415257.250 59.953 429514.114 4415259.837 59.927 429512.339 4415263.520 59.926 429510.506 4415267.166 59.932 429508.642 4415270.798 59.938 429506.709 4415274.394 59.965 429504.763 4415277.889 59.991 429502.707 4415281.466 59.997 429500.617 4415285.004 60.010 429498.482 4415288.476 60.010 429496.292 4415291.910 60.015 429494.113 4415295.265 60.016 429491.831 4415298.686 60.016 429489.535 4415302.040 60.017 429487.219 4415305.301 60.026 429484.753 4415308.737 60.029 429484.064 4415309.697 60.029 429481.583 4415312.926 60.044 429479.081 4415316.143 60.061 429476.537 4415319.345 60.072 429473.959 4415322.505 60.091 429471.391 4415325.572 60.091 429468.743 4415328.586 60.118 429466.921 4415330.633 60.122 429464.209 4415333.626 60.138 429461.433 4415336.606 60.138 429458.601 4415339.526 60.163 429455.740 4415342.430 60.171 429452.899 4415345.246 60.183 429449.982 4415348.096 60.186 429447.053 4415350.894 60.199 429444.137 4415353.649 60.209 429441.197 4415356.388 60.231 429438.264 4415359.108 60.258 429435.317 4415361.830 60.268 429432.358 4415364.556 60.282 429429.414 4415367.263 60.291 429426.459 4415369.957 60.318 429425.225 4415371.107 60.318 429422.259 4415373.847 60.323 429419.321 4415376.557 60.331 429416.381 4415379.281 60.352 429413.440 4415381.982 60.357 429410.498 4415384.692 60.360 429407.554 4415387.406 60.382 429404.601 4415390.122 60.418 429401.667 4415392.823 60.422 429398.724 4415395.531 60.438 429395.783 4415398.242 60.448 429392.844 4415400.946 60.469 429389.893 4415403.656 60.478 429386.958 4415406.368 60.493 429384.011 4415409.073 60.504 429381.068 4415411.783 60.528 429378.122 4415414.500 60.537 429375.188 4415417.209 60.555 429372.252 4415419.918 60.571 429369.311 4415422.629 60.579 429366.364 4415425.342 60.590 429363.432 4415428.046 60.593 429361.661 4415429.679 60.593 429358.702 4415432.402 60.607 429355.759 4415435.104 60.616 429352.801 4415437.829 60.628 429349.855 4415440.536 60.673 429346.967 4415443.185 60.673 429343.975 4415445.926 60.689 429341.049 4415448.625 60.718 429338.105 4415451.334 60.769 429335.162 4415454.043 60.781 429332.219 4415456.755 60.796 429329.276 4415459.467 60.805 429326.397 4415462.251 60.833 429323.564 4415465.065 60.884,,0,0,0,0,0
81,429308.986 4415472.872 60.953 429306.047 4415475.569 60.953 429303.828 4415477.606 60.953 429300.892 4415480.323 60.958 429297.950 4415483.036 60.978 429295.007 4415485.742 61.020 429292.043 4415488.467 61.038 429287.613 4415492.486 61.038 429284.582 4415495.280 61.038,,0,0,0,0,0
82,429313.044 4415477.297 60.898 429310.164 4415479.994 60.945 429307.928 4415482.051 60.945 429304.982 4415484.762 60.945 429302.038 4415487.483 60.958 429299.095 4415490.175 60.977 429296.055 4415492.973 60.993 429291.659 4415497.029 60.993 429286.972 4415501.312 60.993,,0,0,0,0,0
83,429310.928 4415475.159 60.915 429308.103 4415477.779 60.915 429305.876 4415479.827 60.915 429302.931 4415482.536 60.915 429299.991 4415485.256 60.941 429297.044 4415487.951 60.978 429294.043 4415490.713 61.007 429289.650 4415494.773 61.007 429285.782 4415498.308 61.007,,0,0,0,0,0
84,429601.920 4415056.719 60.487 429604.408 4415053.517 60.487 429606.894 4415050.310 60.509 429609.388 4415047.183 60.517 429611.956 4415044.004 60.519 429614.538 4415040.894 60.522 429617.102 4415037.817 60.540 429619.665 4415034.732 60.555 429622.227 4415031.660 60.575 429624.801 4415028.573 60.588 429627.381 4415025.490 60.571 429629.975 4415022.412 60.570 429632.573 4415019.336 60.581 429635.178 4415016.300 60.587 429637.867 4415013.254 60.599 429640.479 4415010.333 60.604 429643.271 4415007.362 60.623 429643.688 4415006.922 60.623 429646.100 4415004.449 60.645 429648.943 4415001.585 60.645 429651.791 4414998.726 60.636 429654.631 4414995.909 60.630 429657.550 4414993.060 60.621 429660.470 4414990.251 60.620 429663.423 4414987.469 60.618 429666.384 4414984.721 60.618 429669.342 4414982.028 60.615 429672.363 4414979.307 60.612 429675.394 4414976.623 60.608 429678.440 4414973.969 60.575 429681.523 4414971.333 60.566 429684.575 4414968.747 60.566 429687.715 4414966.161 60.566 429690.829 4414963.616 60.602 429693.943 4414961.090 60.612 429697.057 4414958.580 60.609 429700.171 4414956.079 60.609 429702.912 4414953.871 60.595 429705.983 4414951.370 60.587 429709.052 4414948.840 60.569 429712.084 4414946.302 60.556 429715.134 4414943.714 60.550 429718.152 4414941.176 60.550 429721.146 4414938.536 60.540 429724.121 4414935.936 60.515 429727.124 4414933.297 60.507 429730.122 4414930.648 60.483 429733.099 4414928.007 60.483 429736.091 4414925.343 60.451 429739.087 4414922.672 60.440 429742.201 4414919.954 60.409 429745.246 4414917.361 60.394 429748.929 4414914.424 60.258 429752.592 4414911.852 60.192 429756.308 4414909.701 60.121 429759.989 4414907.730 60.202,,0,0,0,0,0
85,429607.271 4415055.737 60.531 429609.728 4415052.556 60.555 429612.207 4415049.417 60.555 429614.727 4415046.274 60.563 429617.281 4415043.177 60.573 429619.837 4415040.098 60.595 429622.401 4415037.023 60.605 429624.965 4415033.953 60.620 429627.543 4415030.886 60.626 429630.124 4415027.821 60.628 429632.711 4415024.759 60.632 429635.312 4415021.708 60.642 429637.916 4415018.672 60.642 429640.579 4415015.659 60.660 429643.114 4415012.803 60.663 429644.164 4415011.685 60.670 429645.884 4415009.881 60.670 429648.672 4415006.985 60.690 429651.491 4415004.130 60.701 429654.323 4415001.288 60.686 429657.160 4414998.469 60.686 429660.045 4414995.660 60.678 429662.941 4414992.875 60.680 429665.864 4414990.117 60.680 429668.805 4414987.385 60.678 429671.768 4414984.698 60.674 429674.756 4414982.006 60.666 429677.764 4414979.345 60.659 429680.791 4414976.710 60.632 429683.844 4414974.096 60.624 429686.891 4414971.504 60.624 429689.996 4414968.947 60.625 429693.099 4414966.411 60.645 429696.203 4414963.884 60.645 429699.312 4414961.367 60.642 429702.425 4414958.859 60.642 429705.167 4414956.644 60.627 429708.263 4414954.132 60.624 429711.343 4414951.591 60.611 429714.402 4414949.038 60.609 429717.455 4414946.453 60.609 429720.474 4414943.858 60.607 429723.494 4414941.240 60.593 429726.500 4414938.626 60.561 429729.507 4414935.988 60.552 429732.502 4414933.337 60.537 429735.491 4414930.690 60.531 429738.479 4414928.027 60.505 429741.468 4414925.362 60.495 429744.506 4414922.693 60.462 429747.525 4414920.068 60.462 429750.833 4414917.422 60.332 429754.301 4414915.129 60.288 429757.945 4414913.269 60.218 429761.631 4414911.590 60.279 429765.319 4414910.040 60.279 429769.108 4414908.561 60.272 429772.855 4414907.167 60.430 429776.548 4414905.799 60.433 429780.309 4414904.423 60.435,,0,0,0,0,0
86,429809.110 4414892.827 60.153 429803.205 4414896.875 60.153 429800.091 4414898.982 60.168 429796.778 4414901.230 60.183 429793.473 4414903.491 60.197 429790.150 4414905.722 60.262 429786.292 4414908.299 60.300 429782.912 4414910.572 60.314 429779.537 4414912.859 60.347 429775.949 4414915.318 60.359 429772.547 4414917.624 60.383 429769.429 4414919.702 60.397 429766.053 4414921.983 60.446 429762.920 4414924.109 60.467 429760.012 4414926.079 60.495 429757.436 4414927.816 60.495 429755.274 4414929.274 60.504 429751.944 4414931.528 60.536 429748.802 4414933.649 60.536 429745.480 4414935.897 60.544 429742.143 4414938.150 60.564 429738.777 4414940.428 60.568 429735.438 4414942.690 60.580 429732.090 4414944.947 60.594 429728.690 4414947.223 60.618 429725.329 4414949.467 60.621 429721.941 4414951.748 60.629 429718.609 4414954.003 60.632 429715.244 4414956.276 60.646 429711.910 4414958.549 60.650 429708.590 4414960.852 60.657 429705.696 4414962.892 60.662 429702.483 4414965.286 60.671 429699.311 4414967.725 60.673 429696.184 4414970.211 60.679 429693.102 4414972.742 60.703 429690.048 4414975.264 60.703 429686.978 4414977.827 60.707 429683.981 4414980.429 60.694 429680.986 4414983.046 60.702 429678.007 4414985.673 60.710 429675.055 4414988.317 60.716 429672.106 4414991.020 60.719 429669.196 4414993.731 60.719 429666.307 4414996.450 60.716 429663.439 4414999.196 60.724 429660.601 4415001.951 60.724 429657.767 4415004.773 60.719 429654.956 4415007.591 60.716 429652.175 4415010.438 60.701 429649.423 4415013.293 60.701 429646.744 4415016.204 60.698 429644.826 4415018.299 60.695 429644.264 4415018.926 60.695 429641.635 4415021.893 60.682 429639.005 4415024.907 60.664 429636.407 4415027.929 60.664 429633.816 4415030.957 60.657 429631.249 4415034.010 60.642 429628.685 4415037.066 60.620 429626.122 4415040.137 60.607 429623.573 4415043.212 60.605 429621.034 4415046.299 60.591 429618.528 4415049.386 60.576 429616.052 4415052.464 60.568 429613.579 4415055.608 60.551 429611.148 4415058.744 60.546 429609.576 4415060.733 60.547,,0,0,0,0,0
87,429636.558 4415033.288 60.607 429633.990 4415036.322 60.594 429631.436 4415039.369 60.566 429628.874 4415042.441 60.569 429626.327 4415045.508 60.567 429623.796 4415048.597 60.556 429621.311 4415051.665 60.526 429618.874 4415054.701 60.526 429616.406 4415057.849 60.504 429614.008 4415060.961 60.499 429612.555 4415062.922 60.496,,0,0,0,0,0
88,429808.440 4414897.157 60.070 429804.655 4414899.715 60.096 429801.755 4414901.678 60.111 429798.445 4414903.931 60.144 429795.140 4414906.192 60.168 429791.819 4414908.426 60.230 429787.557 4414911.287 60.252 429784.179 4414913.567 60.267 429780.806 4414915.858 60.305 429777.117 4414918.398 60.316 429773.721 4414920.717 60.356 429770.716 4414922.727 60.356 429767.345 4414925.020 60.411 429764.292 4414927.099 60.424 429761.524 4414928.977 60.446 429759.179 4414930.560 60.446 429757.383 4414931.779 60.453 429754.067 4414934.051 60.478 429751.002 4414936.134 60.492 429747.695 4414938.387 60.502 429744.371 4414940.649 60.517 429741.001 4414942.941 60.529 429737.666 4414945.208 60.529 429734.328 4414947.477 60.556 429730.911 4414949.780 60.578 429727.553 4414952.037 60.582 429724.143 4414954.346 60.594 429720.822 4414956.614 60.594 429717.459 4414958.936 60.618 429714.136 4414961.244 60.626 429710.818 4414963.592 60.633 429707.938 4414965.656 60.640 429704.738 4414968.074 60.649 429701.573 4414970.520 60.654 429698.459 4414973.012 60.661 429695.386 4414975.531 60.680 429692.370 4414978.028 60.680 429689.303 4414980.595 60.681 429686.333 4414983.171 60.666 429683.359 4414985.770 60.674 429680.403 4414988.375 60.674 429677.486 4414990.993 60.683 429674.537 4414993.696 60.687 429671.649 4414996.391 60.688 429668.787 4414999.085 60.685 429665.939 4415001.801 60.688 429663.143 4415004.524 60.688 429660.306 4415007.343 60.680 429657.511 4415010.143 60.675 429654.750 4415012.977 60.659 429652.030 4415015.807 60.659 429649.391 4415018.686 60.653 429646.976 4415021.331 60.648 429645.314 4415023.186 60.638 429644.370 4415024.262 60.631 429641.731 4415027.268 60.619 429639.143 4415030.276 60.614 429636.558 4415033.288 60.607,,0,0,0,0,0
89,429766.888 4414902.712 60.154 429770.622 4414901.282 60.147 429774.059 4414899.918 60.153 429777.769 4414898.424 60.153 429778.591 4414898.041 60.153,,0,0,0,0,0
90,429767.965 4414905.551 60.211 429771.720 4414904.177 60.211 429775.286 4414902.817 60.211 429779.344 4414901.232 60.211,,0,0,0,0,0
91,429780.309 4414904.423 60.435 429783.955 4414902.778 60.263 429787.346 4414901.180 60.245 429790.835 4414899.217 60.167 429794.241 4414897.120 60.167 429797.621 4414894.981 60.159 429801.108 4414892.767 60.141 429804.142 4414890.838 60.113 429807.660 4414888.702 60.113 429808.293 4414888.365 60.113,,0,0,0,0,0
92,429778.591 4414898.041 60.153 429781.440 4414896.835 60.175 429783.926 4414895.639 60.151 429787.452 4414893.736 60.151 429790.879 4414891.673 60.127 429794.266 4414889.546 60.099 429798.168 4414887.010 60.041 429800.499 4414885.482 60.041 429803.943 4414883.237 60.041 429807.006 4414881.300 60.041,,0,0,0,0,0
93,429779.344 4414901.232 60.211 429782.682 4414899.769 60.222 429785.591 4414898.336 60.190 429789.098 4414896.403 60.176 429792.533 4414894.353 60.168 429795.923 4414892.229 60.147 429799.627 4414889.867 60.109 429802.308 4414888.142 60.082 429805.773 4414885.927 60.082 429807.648 4414884.827 60.082,,0,0,0,0,0
94,430200.136 4414623.690 58.323 430203.623 4414621.798 58.315 430207.152 4414619.847 58.273 430210.659 4414617.923 58.262 430214.158 4414616.003 58.264 430217.632 4414614.098 58.275 430221.187 4414612.146 58.272 430224.706 4414610.222 58.272 430227.933 4414608.465 58.272,,0,0,0,0,0
95,430201.531 4414626.236 58.365 430205.022 4414624.337 58.365 430208.548 4414622.394 58.338 430212.054 4414620.468 58.314 430215.555 4414618.548 58.314 430219.028 4414616.626 58.325 430222.572 4414614.676 58.320 430226.090 4414612.754 58.320 430228.563 4414611.443 58.320,,0,0,0,0,0
96,430229.601 4414619.178 58.430 430226.117 4414621.149 58.430 430222.600 4414623.097 58.305 430219.106 4414625.016 58.305 430215.608 4414626.951 58.305 430212.117 4414628.904 58.305 430208.619 4414630.866 58.315 430205.131 4414632.801 58.317 430201.609 4414634.742 58.311 430198.123 4414636.651 58.310 430194.603 4414638.567 58.310 430191.104 4414640.506 58.276 430187.588 4414642.438 58.270 430184.100 4414644.357 58.264 430180.587 4414646.299 58.264 430177.079 4414648.238 58.264 430173.579 4414650.174 58.262 430170.069 4414652.113 58.258 430166.573 4414654.044 58.258 430163.068 4414655.983 58.249 430159.570 4414657.923 58.249 430156.059 4414659.874 58.236 430152.571 4414661.780 58.227 430150.676 4414662.840 58.214 430143.694 4414666.800 58.192 430140.199 4414668.808 58.186 430136.700 4414670.830 58.168 430133.248 4414672.851 58.168 430129.771 4414674.911 58.162 430126.320 4414676.975 58.153 430122.877 4414679.051 58.142 430119.437 4414681.138 58.126 430116.029 4414683.231 58.126 430112.599 4414685.353 58.126 430109.187 4414687.501 58.121 430105.780 4414689.660 58.113 430102.380 4414691.827 58.108 430099.013 4414693.985 58.113 430095.614 4414696.201 58.111 430092.269 4414698.400 58.106 430088.927 4414700.612 58.100 430085.595 4414702.833 58.090 430082.269 4414705.055 58.090 430078.914 4414707.322 58.080 430075.615 4414709.545 58.091 430072.293 4414711.781 58.101 430068.979 4414714.027 58.102 430065.677 4414716.284 58.102 430062.356 4414718.528 58.097 430059.043 4414720.768 58.100 430055.718 4414723.023 58.130 430052.422 4414725.266 58.139 430049.117 4414727.520 58.152 430045.808 4414729.766 58.157 430042.501 4414732.017 58.162 430039.196 4414734.270 58.171 430035.891 4414736.523 58.205 430032.585 4414738.775 58.219 430029.280 4414741.027 58.231 430025.974 4414743.279 58.240 430022.665 4414745.526 58.274 430019.362 4414747.783 58.347 430016.044 4414750.053 58.347 430012.744 4414752.297 58.322 430009.441 4414754.522 58.329 430006.129 4414756.766 58.353 430002.788 4414759.041 58.367 429999.523 4414761.287 58.395 429996.213 4414763.543 58.404 429992.909 4414765.792 58.435 429989.600 4414768.040 58.450 429986.283 4414770.287 58.540 429982.974 4414772.540 58.558 429979.690 4414774.804 58.593 429976.384 4414777.064 58.578 429973.074 4414779.309 58.592 429969.771 4414781.552 58.615 429966.448 4414783.810 58.633 429963.150 4414786.064 58.729 429959.854 4414788.306 58.745 429956.546 4414790.555 58.776 429953.240 4414792.807 58.776 429949.944 4414795.053 58.826 429946.631 4414797.310 58.847 429943.321 4414799.565 58.892 429940.014 4414801.815 58.944 429936.698 4414804.073 58.944 429933.431 4414806.314 58.959 429930.083 4414808.588 59.016 429926.780 4414810.837 59.078 429923.476 4414813.091 59.096 429920.203 4414815.319 59.121 429916.877 4414817.595 59.141 429913.575 4414819.851 59.194 429910.277 4414822.117 59.213 429906.974 4414824.373 59.252 429903.590 4414826.658 59.252 429900.073 4414829.027 59.297 429896.911 4414831.166 59.316 429893.532 4414833.464 59.359 429890.200 4414835.690 59.361 429886.989 4414837.763 59.361 429883.628 4414839.950 59.380 429880.597 4414842.000 59.407 429877.252 4414844.256 59.466 429873.965 4414846.481 59.484 429870.659 4414848.752 59.501 429867.360 4414851.014 59.524 429864.048 4414853.244 59.577 429860.750 4414855.484 59.593 429857.429 4414857.746 59.593,,0,0,0,0,0
97,430202.973 4414628.866 58.403 430206.459 4414626.945 58.399 430209.979 4414625.004 58.391 430213.481 4414623.071 58.376 430216.981 4414621.146 58.373 430220.464 4414619.227 58.381 430224.041 4414617.359 58.381 430229.232 4414614.610 58.381,,0,0,0,0,0
98,430227.943 4414624.486 58.251 430224.423 4414626.398 58.251 430220.908 4414628.298 58.248 430217.395 4414630.209 58.249 430213.888 4414632.133 58.249 430210.380 4414634.063 58.266 430206.881 4414635.994 58.272 430203.367 4414637.919 58.264 430199.868 4414639.839 58.260 430196.365 4414641.777 58.260 430192.855 4414643.694 58.257 430189.343 4414645.617 58.249 430185.843 4414647.541 58.237 430182.334 4414649.471 58.234 430178.826 4414651.399 58.231 430175.325 4414653.334 58.230 430171.822 4414655.271 58.222 430168.323 4414657.206 58.216 430164.822 4414659.144 58.201 430161.323 4414661.082 58.201 430157.824 4414663.032 58.181 430154.339 4414664.978 58.172 430148.981 4414667.985 58.157 430145.503 4414669.968 58.136 430142.023 4414671.962 58.128 430138.547 4414673.967 58.110 430135.091 4414675.981 58.110 430131.644 4414678.038 58.103 430128.205 4414680.095 58.100 430124.773 4414682.163 58.088 430121.347 4414684.242 58.072 430117.938 4414686.335 58.072 430114.525 4414688.442 58.071 430111.129 4414690.576 58.064 430107.739 4414692.720 58.054 430104.358 4414694.877 58.049 430100.995 4414697.042 58.054 430097.631 4414699.242 58.052 430094.294 4414701.448 58.051 430090.957 4414703.659 58.052 430087.624 4414705.874 58.052 430084.297 4414708.094 58.052 430080.963 4414710.333 58.047 430077.657 4414712.571 58.047 430074.339 4414714.809 58.053 430071.022 4414717.046 58.054 430067.712 4414719.292 58.054 430064.401 4414721.541 58.052 430061.091 4414723.787 58.054 430057.777 4414726.036 58.079 430054.473 4414728.284 58.084 430051.168 4414730.536 58.233 430047.859 4414732.784 58.233 430044.552 4414735.033 58.241 430041.244 4414737.282 58.241 430037.937 4414739.532 58.260 430034.630 4414741.783 58.273 430031.325 4414744.035 58.273 430028.019 4414746.288 58.273 430024.704 4414748.526 58.282 430021.398 4414750.777 58.355 430018.087 4414753.034 58.355 430014.794 4414755.299 58.273 430011.487 4414757.539 58.284 430008.176 4414759.784 58.295 430004.853 4414762.035 58.308 430001.567 4414764.295 58.341 429998.265 4414766.555 58.353 429994.956 4414768.802 58.385 429991.648 4414771.049 58.385 429988.339 4414773.301 58.493 429985.032 4414775.553 58.505 429981.740 4414777.818 58.541 429978.436 4414780.075 58.528 429975.124 4414782.318 58.528 429971.818 4414784.565 58.570 429968.506 4414786.818 58.587 429965.203 4414789.072 58.679 429961.904 4414791.326 58.691 429958.598 4414793.577 58.709 429955.285 4414795.819 58.722 429951.983 4414798.069 58.773 429948.673 4414800.320 58.796 429945.361 4414802.566 58.839 429942.054 4414804.816 58.874 429938.748 4414807.075 58.895 429935.457 4414809.326 58.916 429932.132 4414811.577 58.967 429928.825 4414813.825 59.025 429925.530 4414816.092 59.025 429922.238 4414818.341 59.076 429918.918 4414820.590 59.094 429915.614 4414822.843 59.146 429912.312 4414825.102 59.164 429909.008 4414827.356 59.182 429905.681 4414829.625 59.195 429902.316 4414831.933 59.239 429899.249 4414834.139 59.249 429895.991 4414836.510 59.295 429892.754 4414838.862 59.296,,0,0,0,0,0
99,430187.459 4414633.868 58.363 430190.987 4414631.982 58.363 430194.523 4414630.072 58.363 430197.978 4414628.181 58.364 430201.531 4414626.236 58.364,,0,0,0,0,0
100,430186.148 4414631.479 58.326 430189.607 4414629.470 58.326 430193.129 4414627.525 58.326 430196.574 4414625.643 58.326 430200.136 4414623.690 58.326,,0,0,0,0,0
101,429848.215 4414858.462 59.734 429851.529 4414856.221 59.697 429854.830 4414853.968 59.630 429858.157 4414851.694 59.630 429861.439 4414849.446 59.611 429864.736 4414847.203 59.567 429868.044 4414844.954 59.512 429871.368 4414842.697 59.496 429874.637 4414840.479 59.477 429877.987 4414838.190 59.460 429880.833 4414836.262 59.439 429884.152 4414834.018 59.419 429887.193 4414831.956 59.395 429890.499 4414829.706 59.376 429893.913 4414827.355 59.295 429897.094 4414825.169 59.281 429900.766 4414822.650 59.240 429904.195 4414820.298 59.240 429907.512 4414818.062 59.221 429910.835 4414815.830 59.200 429914.145 4414813.587 59.159 429917.500 4414811.304 59.111 429920.739 4414809.092 59.111 429924.044 4414806.838 59.094 429927.346 4414804.595 59.034 429930.712 4414802.274 58.939 429933.940 4414800.037 58.922 429937.269 4414797.778 58.903 429940.592 4414795.551 58.883 429943.904 4414793.290 58.822 429947.229 4414791.035 58.801 429950.519 4414788.800 58.764 429953.820 4414786.540 58.737 429957.121 4414784.281 58.721 429960.409 4414782.048 58.708 429963.712 4414779.810 58.671 429967.047 4414777.541 58.622 429970.338 4414775.294 58.622 429973.634 4414773.028 58.607 429976.955 4414770.780 58.575 429980.252 4414768.555 58.558 429983.569 4414766.309 58.543 429986.882 4414764.046 58.523 429990.202 4414761.815 58.509 429993.499 4414759.558 58.472 429996.807 4414757.293 58.457 430000.058 4414755.083 58.425 430003.434 4414752.792 58.425 430006.742 4414750.543 58.397 430010.020 4414748.307 58.386 430013.313 4414746.068 58.371 430016.657 4414743.802 58.325 430019.960 4414741.546 58.325 430023.262 4414739.289 58.316 430026.570 4414737.039 58.291 430029.882 4414734.797 58.279 430033.190 4414732.548 58.254 430036.494 4414730.294 58.243 430039.802 4414728.045 58.239 430043.114 4414725.803 58.239 430046.413 4414723.541 58.221 430049.718 4414721.287 58.212 430053.006 4414719.052 58.194 430056.338 4414716.783 58.186 430059.645 4414714.532 58.186 430062.964 4414712.276 58.192 430066.275 4414710.031 58.186 430069.593 4414707.786 58.180 430072.914 4414705.542 58.172 430076.193 4414703.324 58.168 430079.586 4414701.036 58.171 430082.907 4414698.807 58.179 430086.240 4414696.577 58.183 430089.582 4414694.355 58.183 430092.921 4414692.143 58.185 430096.379 4414689.924 58.190 430099.747 4414687.765 58.195 430103.173 4414685.590 58.206 430106.610 4414683.422 58.213 430110.053 4414681.270 58.213 430113.497 4414679.116 58.218 430116.911 4414677.032 58.223 430120.371 4414674.937 58.230 430123.827 4414672.848 58.237 430127.290 4414670.769 58.241 430130.804 4414668.700 58.247 430134.265 4414666.694 58.260 430137.795 4414664.652 58.263 430141.308 4414662.622 58.279 430144.793 4414660.622 58.294 430148.302 4414658.634 58.303 430150.229 4414657.546 58.307 430153.677 4414655.613 58.320 430157.206 4414653.664 58.334 430160.709 4414651.734 58.359 430164.225 4414649.801 58.361 430167.730 4414647.899 58.364 430171.259 4414645.978 58.368 430174.784 4414644.086 58.374 430178.317 4414642.176 58.377 430181.869 4414640.284 58.388 430185.358 4414638.399 58.400 430188.911 4414636.512 58.400 430192.439 4414634.627 58.404 430195.969 4414632.715 58.403 430199.433 4414630.810 58.403 430202.973 4414628.866 58.403,,0,0,0,0,0
102,429846.159 4414855.471 59.659 429849.473 4414853.232 59.641 429852.778 4414850.985 59.569 429856.111 4414848.705 59.555 429859.389 4414846.462 59.555 429862.682 4414844.220 59.508 429865.988 4414841.968 59.460 429869.316 4414839.706 59.447 429872.570 4414837.495 59.413 429875.939 4414835.202 59.413 429878.642 4414833.371 59.389 429881.959 4414831.125 59.371 429884.910 4414829.120 59.328 429888.209 4414826.870 59.328 429891.668 4414824.501 59.246 429894.876 4414822.297 59.227 429898.674 4414819.682 59.186 429902.146 4414817.293 59.167 429905.469 4414815.067 59.146 429908.794 4414812.836 59.146 429912.106 4414810.596 59.108 429915.477 4414808.300 59.060 429918.693 4414806.102 59.037 429921.996 4414803.847 59.017 429925.298 4414801.608 58.985 429928.692 4414799.272 58.894 429931.897 4414797.045 58.873 429935.233 4414794.783 58.839 429938.562 4414792.566 58.819 429941.881 4414790.308 58.778 429945.204 4414788.038 58.755 429948.486 4414785.807 58.716 429951.793 4414783.554 58.672 429955.096 4414781.298 58.654 429958.370 4414779.061 58.654 429961.666 4414776.819 58.616 429965.006 4414774.537 58.568 429968.292 4414772.291 58.550 429971.594 4414770.033 58.535 429974.909 4414767.772 58.517 429978.202 4414765.554 58.505 429981.524 4414763.312 58.491 429984.853 4414761.064 58.457 429988.165 4414758.822 58.442 429991.461 4414756.566 58.418 429994.772 4414754.299 58.404 429998.001 4414752.100 58.373 430001.400 4414749.793 58.363 430004.707 4414747.542 58.334 430007.979 4414745.318 58.334 430011.265 4414743.079 58.316 430014.625 4414740.813 58.291 430017.926 4414738.554 58.222 430021.229 4414736.298 58.222 430024.539 4414734.052 58.197 430027.853 4414731.811 58.197 430031.154 4414729.554 58.186 430034.457 4414727.297 58.186 430037.766 4414725.049 58.180 430041.079 4414722.809 58.180 430044.381 4414720.551 58.165 430047.684 4414718.295 58.165 430050.963 4414716.061 58.154 430054.304 4414713.786 58.147 430057.610 4414711.534 58.147 430060.930 4414709.271 58.145 430064.242 4414707.027 58.140 430067.561 4414704.779 58.136 430070.884 4414702.532 58.136 430074.152 4414700.326 58.132 430077.564 4414698.007 58.130 430080.883 4414695.775 58.129 430084.217 4414693.541 58.131 430087.565 4414691.319 58.130 430090.911 4414689.113 58.130 430094.402 4414686.875 58.132 430097.772 4414684.720 58.135 430101.215 4414682.533 58.143 430104.669 4414680.350 58.149 430108.127 4414678.181 58.156 430111.596 4414676.026 58.161 430115.010 4414673.940 58.166 430118.479 4414671.832 58.172 430121.946 4414669.735 58.175 430125.425 4414667.654 58.185 430128.955 4414665.558 58.185 430132.414 4414663.550 58.194 430135.967 4414661.492 58.199 430139.496 4414659.449 58.215 430142.988 4414657.448 58.240 430146.508 4414655.457 58.240 430148.468 4414654.361 58.248 430151.907 4414652.447 58.269 430155.442 4414650.487 58.269 430158.944 4414648.554 58.290 430162.463 4414646.618 58.293 430165.961 4414644.713 58.301 430169.492 4414642.781 58.312 430172.998 4414640.855 58.312 430176.471 4414638.823 58.316 430179.953 4414636.784 58.325,,0,0,0,0,0
103,429885.466 4414842.376 59.456 429882.314 4414844.504 59.456 429878.984 4414846.757 59.494 429875.687 4414848.991 59.494 429872.371 4414851.239 59.494 429869.076 4414853.507 59.535 429865.772 4414855.753 59.549 429862.466 4414857.991 59.549 429859.148 4414860.244 59.549,,0,0,0,0,0
104,429887.159 4414844.609 59.418 429883.929 4414846.860 59.418 429880.620 4414849.120 59.436 429877.326 4414851.379 59.454 429874.024 4414853.640 59.468 429870.728 4414855.906 59.486 429867.430 4414858.166 59.483 429864.125 4414860.415 59.506 429860.820 4414862.674 59.506,,0,0,0,0,0
105,429857.429 4414857.746 59.658 429854.123 4414859.994 59.658 429850.811 4414862.237 59.658 429847.447 4414864.464 59.658 429847.058 4414864.749 59.658,,0,0,0,0,0
106,429859.148 4414860.244 59.619 429855.843 4414862.496 59.619 429852.537 4414864.748 59.619 429849.224 4414867.024 59.619 429847.709 4414868.019 59.619,,0,0,0,0,0
107,429860.820 4414862.674 59.582 429857.524 4414864.940 59.582 429854.229 4414867.207 59.582 429850.929 4414869.479 59.582 429848.348 4414871.246 59.582,,0,0,0,0,0
108,429796.977 4414341.218 58.490 429793.045 4414342.031 58.517 429789.121 4414342.817 58.517 429785.217 4414343.601 58.539 429781.297 4414344.394 58.550 429777.374 4414345.191 58.550 429773.441 4414345.980 58.571 429769.521 4414346.761 58.612 429765.590 4414347.537 58.612 429761.666 4414348.316 58.635 429757.753 4414349.100 58.635 429753.834 4414349.885 58.635 429749.885 4414350.676 58.635,,0,0,0,0,0
109,429797.680 4414344.640 58.433 429793.733 4414345.433 58.438 429789.812 4414346.234 58.438 429785.921 4414347.024 58.471 429782.001 4414347.822 58.486 429778.077 4414348.621 58.491 429774.139 4414349.423 58.495 429770.223 4414350.212 58.535 429766.289 4414351.000 58.546 429762.367 4414351.784 58.554 429758.459 4414352.572 58.551 429754.545 4414353.369 58.551 429750.576 4414354.145 58.569,,0,0,0,0,0
110,429798.375 4414348.028 58.370 429794.420 4414348.828 58.374 429790.499 4414349.635 58.396 429786.621 4414350.429 58.408 429782.701 4414351.228 58.422 429778.777 4414352.034 58.434 429774.832 4414352.844 58.445 429770.920 4414353.640 58.445 429766.981 4414354.422 58.465 429763.059 4414355.212 58.498 429759.158 4414356.002 58.495 429755.246 4414356.802 58.495 429751.260 4414357.585 58.513,,0,0,0,0,0
111,429750.987 4414335.944 58.529 429754.921 4414335.193 58.468 429758.865 4414334.448 58.459 429762.789 4414333.673 58.493 429766.696 4414332.869 58.420 429770.615 4414332.043 58.403 429774.511 4414331.220 58.379 429778.421 4414330.402 58.379 429782.347 4414329.631 58.358 429786.285 4414328.779 58.338 429790.201 4414327.977 58.325 429794.107 4414327.237 58.300 429798.073 4414326.451 58.300 429801.986 4414325.619 58.284 429805.880 4414324.902 58.255 429809.833 4414324.216 58.254,,0,0,0,0,0
112,429751.675 4414339.317 58.630 429755.617 4414338.613 58.511 429759.559 4414337.885 58.511 429763.489 4414337.135 58.596 429767.394 4414336.303 58.466 429771.307 4414335.454 58.450 429775.209 4414334.626 58.427 429779.116 4414333.782 58.427 429783.049 4414333.051 58.407 429786.965 4414332.145 58.383 429790.879 4414331.327 58.371 429794.807 4414330.644 58.343 429798.761 4414329.891 58.343 429802.665 4414329.014 58.334 429806.564 4414328.239 58.297 429810.489 4414327.434 58.272 429814.411 4414326.626 58.261 429818.345 4414325.926 58.261 429822.294 4414325.180 58.257 429826.189 4414324.362 58.236 429830.118 4414323.545 58.224 429834.030 4414322.766 58.282 429837.953 4414321.980 58.282 429841.873 4414321.157 58.269 429845.806 4414320.382 58.169 429849.717 4414319.576 58.151 429853.618 4414318.727 58.142 429857.534 4414317.911 58.142 429861.464 4414317.163 58.207 429865.397 4414316.374 58.102 429869.320 4414315.581 58.102 429873.236 4414314.768 58.089 429877.157 4414313.978 58.089,,0,0,0,0,0
113,429752.380 4414342.766 58.592 429756.310 4414342.015 58.508 429760.239 4414341.251 58.515 429764.164 4414340.478 58.558 429768.079 4414339.669 58.484 429771.994 4414338.846 58.466 429775.907 4414338.034 58.447 429779.821 4414337.212 58.435 429783.746 4414336.442 58.425 429787.660 4414335.588 58.401 429791.578 4414334.781 58.385 429795.504 4414334.043 58.363 429799.437 4414333.267 58.352 429803.348 4414332.425 58.347 429807.264 4414331.653 58.322 429811.185 4414330.850 58.296 429815.105 4414330.045 58.283 429819.033 4414329.297 58.275 429822.964 4414328.528 58.272 429826.876 4414327.724 58.252 429830.798 4414326.917 58.236 429834.716 4414326.129 58.258 429838.638 4414325.343 58.258 429842.556 4414324.528 58.242 429846.481 4414323.743 58.190 429850.399 4414322.947 58.172 429854.311 4414322.126 58.162 429858.229 4414321.320 58.162 429862.153 4414320.544 58.189 429866.077 4414319.751 58.130 429869.999 4414318.959 58.124 429873.920 4414318.168 58.114 429877.847 4414317.409 58.102,,0,0,0,0,0
114,429928.884 4414314.480 58.003 429924.856 4414315.278 58.031 429920.927 4414316.068 58.058 429916.985 4414316.861 58.067 429913.067 4414317.667 58.064 429909.169 4414318.464 58.087 429905.246 4414319.263 58.100 429901.310 4414320.044 58.117 429898.871 4414320.540 58.117 429894.983 4414321.321 58.127 429891.020 4414322.119 58.145 429887.130 4414322.914 58.151 429883.216 4414323.693 58.163 429879.274 4414324.503 58.174 429875.356 4414325.305 58.191 429871.434 4414326.091 58.209 429867.514 4414326.878 58.215 429863.598 4414327.638 58.233 429859.681 4414328.445 58.240 429855.765 4414329.258 58.249 429851.839 4414330.068 58.279 429847.912 4414330.866 58.290 429844.000 4414331.657 58.290 429840.085 4414332.444 58.297 429836.164 4414333.237 58.316 429832.229 4414334.017 58.343 429828.316 4414334.778 58.343 429824.393 4414335.662 58.364 429820.489 4414336.441 58.377 429816.558 4414337.213 58.391 429812.643 4414338.007 58.416 429808.734 4414338.822 58.427 429804.774 4414339.547 58.447 429800.863 4414340.392 58.447 429796.977 4414341.218 58.490,,0,0,0,0,0
115,429817.246 4414340.603 58.329 429813.335 4414341.401 58.355 429809.440 4414342.267 58.355 429805.455 4414342.951 58.382 429801.551 4414343.827 58.391 429797.680 4414344.640 58.433,,0,0,0,0,0
116,429813.967 4414344.504 58.302 429810.102 4414345.496 58.311 429806.141 4414346.376 58.327 429802.236 4414347.248 58.346 429798.375 4414348.028 58.370,,0,0,0,0,0
117,429929.594 4414317.944 57.973 429925.562 4414318.719 57.973 429921.629 4414319.513 57.999 429917.673 4414320.307 58.002 429913.753 4414321.105 57.999 429909.870 4414321.904 58.019 429905.945 4414322.709 58.032 429902.001 4414323.495 58.052 429899.562 4414323.992 58.052 429895.696 4414324.775 58.063 429891.704 4414325.567 58.081 429887.830 4414326.350 58.089 429883.922 4414327.127 58.102 429879.966 4414327.943 58.112 429876.047 4414328.743 58.130 429872.127 4414329.537 58.150 429868.209 4414330.327 58.157 429864.300 4414331.082 58.176 429860.383 4414331.890 58.183 429856.467 4414332.704 58.192 429852.535 4414333.506 58.228 429848.600 4414334.293 58.236 429844.696 4414335.093 58.243 429840.784 4414335.876 58.243 429836.868 4414336.690 58.269 429832.942 4414337.552 58.285 429829.071 4414338.472 58.290 429825.189 4414339.640 58.293,,0,0,0,0,0
118,429877.847 4414317.409 58.102 429881.754 4414316.585 58.096 429885.677 4414315.790 58.089 429889.607 4414314.995 58.111 429893.516 4414314.214 58.108 429897.450 4414313.432 58.044 429899.883 4414312.927 58.038 429903.800 4414312.140 58.031 429907.720 4414311.349 58.023 429911.647 4414310.554 58.014 429915.567 4414309.755 58.001 429919.484 4414308.981 57.986 429923.396 4414308.158 57.966 429927.420 4414307.345 57.924,,0,0,0,0,0
119,429877.157 4414313.978 58.089 429881.049 4414313.158 58.008 429884.979 4414312.367 58.005 429888.928 4414311.570 58.035 429892.809 4414310.788 58.035 429896.761 4414309.989 57.971 429899.195 4414309.496 57.971 429903.103 4414308.706 57.971 429907.020 4414307.914 57.971 429910.961 4414307.117 57.971 429914.881 4414306.320 57.957 429918.778 4414305.515 57.905 429922.682 4414304.676 57.901 429926.703 4414303.847 57.883,,0,0,0,0,0
120,429965.364 4414299.571 57.492 429969.291 4414298.810 57.492 429973.218 4414298.049 57.492 429977.107 4414297.295 57.492 429981.024 4414296.516 57.492 429984.937 4414295.717 57.492 429988.857 4414294.921 57.492 429992.750 4414294.125 57.492 429996.647 4414293.313 57.492 430000.520 4414292.493 57.492 430004.429 4414291.646 57.492 430008.332 4414290.770 57.492 430012.239 4414289.912 57.492 430015.946 4414289.096 57.492 430019.838 4414288.169 57.492 430023.703 4414287.137 57.492 430027.272 4414286.184 57.492 430031.112 4414285.058 57.492 430034.907 4414283.794 57.492 430038.559 4414282.578 57.492,,0,0,0,0,0
121,430002.834 4414303.011 57.711 429998.883 4414303.850 57.721 429994.949 4414304.668 57.726 429991.007 4414305.483 57.731 429987.090 4414306.293 57.731 429983.165 4414307.097 57.740 429979.239 4414307.891 57.754 429975.282 4414308.694 57.767 429971.361 4414309.486 57.773 429967.439 4414310.273 57.773,,0,0,0,0,0
122,430005.993 4414298.754 57.574 430002.084 4414299.600 57.574 429998.157 4414300.429 57.584 429994.234 4414301.239 57.589 429990.306 4414302.039 57.594 429986.386 4414302.835 57.594 429982.464 4414303.631 57.603 429978.540 4414304.419 57.617 429974.605 4414305.201 57.630 429970.681 4414305.978 57.636 429966.582 4414306.767 57.825,,0,0,0,0,0
123,430014.538 4414300.361 57.778 430010.645 4414301.283 57.713 430006.744 4414302.165 57.713 430002.834 4414303.011 57.711,,0,0,0,0,0
124,430081.951 4414271.737 57.528 430074.471 4414275.608 57.543 430070.850 4414277.385 57.565 430067.183 4414279.093 57.537 430063.460 4414280.761 57.537 430059.779 4414282.326 57.551 430056.050 4414283.863 57.561 430052.334 4414285.344 57.563 430048.562 4414286.756 57.567 430044.737 4414288.124 57.567 430040.960 4414289.441 57.581 430037.103 4414290.671 57.627 430033.286 4414291.866 57.627 430029.447 4414292.995 57.627 430025.507 4414294.100 57.627 430021.643 4414295.136 57.630 430017.750 4414296.057 57.641 430013.787 4414296.950 57.641 430009.894 4414297.871 57.576 430005.993 4414298.754 57.574,,0,0,0,0,0
125,430034.334 4414295.148 57.794 430030.496 4414296.280 57.794 430026.362 4414297.400 57.790 430022.504 4414298.457 57.789 430018.614 4414299.391 57.805 430014.538 4414300.361 57.778,,0,0,0,0,0
126,430083.661 4414274.923 57.694 430076.106 4414278.654 57.709 430072.392 4414280.382 57.731 430068.639 4414282.106 57.703 430064.792 4414283.863 57.703 430061.123 4414285.455 57.716 430057.316 4414286.967 57.727 430053.590 4414288.422 57.728 430049.776 4414289.868 57.733 430045.862 4414291.338 57.733 430042.089 4414292.667 57.747 430038.151 4414293.952 57.793 430034.334 4414295.148 57.794,,0,0,0,0,0
127,430038.559 4414282.578 57.492 430042.335 4414281.261 57.492 430045.924 4414279.998 57.492 430049.590 4414278.618 57.492 430053.299 4414277.120 57.492 430056.897 4414275.617 57.492 430060.588 4414274.075 57.492 430064.018 4414272.549 57.492 430067.510 4414270.894 57.492 430070.983 4414269.109 57.492 430078.382 4414265.088 57.492,,0,0,0,0,0
128,430207.244 4414437.324 58.507 430206.402 4414433.378 58.474 430205.602 4414429.898 58.444 430204.727 4414425.975 58.419 430203.821 4414422.058 58.381 430202.866 4414418.151 58.359 430201.855 4414414.281 58.309 430200.806 4414410.365 58.282 430199.897 4414407.182 58.267 430198.757 4414403.348 58.238 430197.501 4414399.491 58.234 430196.313 4414395.670 58.219 430195.010 4414391.888 58.131 430193.647 4414388.074 58.131 430192.432 4414384.609 58.080 430190.854 4414380.900 58.029 430189.286 4414377.196 58.034 430187.651 4414373.506 57.996 430185.996 4414369.864 57.996 430184.303 4414366.190 57.954 430182.481 4414362.586 57.922 430180.626 4414359.018 57.889 430178.706 4414355.473 57.818 430176.767 4414351.950 57.818 430174.698 4414348.469 57.739 430172.599 4414345.038 57.716 430170.453 4414341.620 57.692 430168.276 4414338.265 57.673 430166.007 4414334.920 57.635 430163.682 4414331.626 57.626 430161.293 4414328.378 57.611 430158.892 4414325.136 57.574 430156.467 4414321.955 57.520 430153.944 4414318.778 57.477 430151.350 4414315.684 57.431 430148.729 4414312.654 57.412 430146.392 4414310.006 57.401 430145.148 4414308.642 57.365 430142.411 4414305.670 57.365,,0,0,0,0,0
129,430210.653 4414436.587 58.555 430209.826 4414432.569 58.540 430209.069 4414429.130 58.501 430208.165 4414425.174 58.490 430207.245 4414421.219 58.458 430206.256 4414417.276 58.422 430205.264 4414413.401 58.396 430204.178 4414409.383 58.352 430203.274 4414406.153 58.329 430202.149 4414402.314 58.314 430200.842 4414398.354 58.293 430199.636 4414394.539 58.257 430198.330 4414390.759 58.174 430196.926 4414386.853 58.174 430195.679 4414383.293 58.146 430194.098 4414379.521 58.114 430192.504 4414375.779 58.108 430190.853 4414372.015 58.090 430189.171 4414368.386 58.070 430187.449 4414364.628 58.031 430185.588 4414360.957 57.998 430183.722 4414357.348 57.977 430181.769 4414353.752 57.895 430179.792 4414350.204 57.874 430177.685 4414346.631 57.810 430175.579 4414343.151 57.799 430173.391 4414339.679 57.770 430171.191 4414336.338 57.743 430168.900 4414332.909 57.696 430166.537 4414329.563 57.710 430164.111 4414326.261 57.695 430161.663 4414322.967 57.656 430159.230 4414319.793 57.585 430156.641 4414316.525 57.546 430154.006 4414313.367 57.522 430151.382 4414310.323 57.500 430148.995 4414307.636 57.473 430147.747 4414306.253 57.450 430144.952 4414303.225 57.415,,0,0,0,0,0
130,430205.000 4414396.940 58.413 430206.283 4414401.056 58.426 430207.396 4414404.898 58.478 430208.321 4414408.176 58.478 430209.426 4414412.327 58.504 430210.407 4414416.204 58.526 430211.381 4414420.206 58.554 430212.322 4414424.206 58.585 430213.239 4414428.205 58.585 430214.005 4414431.582 58.626 430214.876 4414435.241 58.637,,0,0,0,0,0
131,430208.318 4414395.811 58.468 430209.631 4414400.036 58.481 430210.750 4414403.877 58.513 430211.677 4414407.198 58.526 430212.818 4414411.451 58.545 430213.808 4414415.326 58.559 430214.792 4414419.370 58.571 430215.751 4414423.407 58.591 430216.670 4414427.445 58.595 430217.401 4414430.780 58.612 430217.877 4414432.908 58.627,,0,0,0,0,0
132,430118.564 4414273.441 57.358 430121.854 4414276.059 57.347 430124.957 4414278.583 57.367 430128.120 4414281.197 57.367 430131.291 4414283.950 57.377 430134.378 4414286.770 57.430 430137.352 4414289.525 57.453 430139.248 4414291.317 57.453 430142.341 4414294.342 57.508 430145.189 4414297.210 57.535 430148.073 4414300.221 57.581 430150.953 4414303.305 57.599 430152.211 4414304.706 57.615 430154.648 4414307.453 57.633 430157.287 4414310.504 57.654 430159.958 4414313.753 57.700 430162.653 4414317.114 57.715 430165.109 4414320.271 57.749 430167.614 4414323.630 57.806 430170.073 4414327.009 57.828 430172.473 4414330.425 57.868 430174.858 4414333.914 57.884 430177.064 4414337.250 57.898 430179.255 4414340.823 57.953 430181.397 4414344.347 57.981 430183.532 4414348.043 58.013 430185.538 4414351.634 58.044 430187.515 4414355.303 58.093 430189.434 4414358.941 58.123 430191.335 4414362.698 58.138 430193.149 4414366.533 58.182 430194.806 4414370.174 58.209 430196.493 4414374.021 58.226 430198.095 4414377.821 58.241 430199.634 4414381.690 58.276 430201.014 4414385.331 58.316 430202.456 4414389.355 58.342 430203.761 4414393.136 58.361 430205.000 4414396.940 58.413,,0,0,0,0,0
133,430124.058 4414273.365 57.423 430127.163 4414275.888 57.441 430130.355 4414278.526 57.441 430133.585 4414281.320 57.465 430136.735 4414284.167 57.493 430139.725 4414286.934 57.517 430141.636 4414288.748 57.532 430144.814 4414291.855 57.562 430147.670 4414294.736 57.587 430150.601 4414297.789 57.636 430153.531 4414300.934 57.674 430154.810 4414302.338 57.674 430157.273 4414305.147 57.705 430159.922 4414308.205 57.723 430162.647 4414311.506 57.767 430165.415 4414314.952 57.785 430167.888 4414318.097 57.797 430170.435 4414321.511 57.841 430172.931 4414324.944 57.883 430175.354 4414328.423 57.924 430177.793 4414331.974 57.936 430179.980 4414335.323 57.967 430182.220 4414338.946 58.013 430184.379 4414342.512 58.043 430186.565 4414346.292 58.093 430188.595 4414349.916 58.126 430190.612 4414353.633 58.150 430192.530 4414357.319 58.165 430194.427 4414361.162 58.198 430196.312 4414365.060 58.239 430197.988 4414368.692 58.270 430199.700 4414372.609 58.299 430201.330 4414376.445 58.299 430202.889 4414380.371 58.331 430204.305 4414384.106 58.373 430205.778 4414388.225 58.399 430207.073 4414392.010 58.434 430208.318 4414395.811 58.468,,0,0,0,0,0
134,430142.411 4414305.670 57.317 430139.621 4414302.760 57.317 430136.796 4414299.917 57.282 430133.900 4414297.073 57.257 430132.048 4414295.317 57.252 430129.081 4414292.620 57.223 430126.093 4414289.910 57.210 430123.056 4414287.251 57.220 430119.989 4414284.653 57.231 430116.881 4414282.136 57.264 430113.735 4414279.605 57.293 430111.749 4414278.025 57.293,,0,0,0,0,0
135,430144.952 4414303.225 57.415 430142.120 4414300.270 57.395 430139.276 4414297.424 57.358 430136.287 4414294.504 57.317 430134.427 4414292.719 57.317 430131.452 4414290.001 57.286 430128.407 4414287.257 57.269 430125.303 4414284.565 57.269 430122.181 4414281.975 57.276 430119.068 4414279.463 57.326 430115.891 4414276.852 57.344 430114.746 4414275.873 57.387,,0,0,0,0,0
136,430237.013 4414585.857 58.151 430236.258 4414581.927 58.151 430235.453 4414577.901 58.154 430234.663 4414573.980 58.174 430233.873 4414570.041 58.215 430233.091 4414566.119 58.241 430232.317 4414562.207 58.374 430231.547 4414558.359 58.416 430231.074 4414556.023 58.419 430230.291 4414552.076 58.550 430229.517 4414548.176 58.550 430228.738 4414544.253 58.550 430227.962 4414540.340 58.575 430227.170 4414536.395 58.621 430226.383 4414532.488 58.641 430225.600 4414528.566 58.641 430224.814 4414524.634 58.676 430224.035 4414520.710 58.727 430223.253 4414516.794 58.740 430222.468 4414512.871 58.754 430221.699 4414508.945 58.763 430220.926 4414505.021 58.800 430220.150 4414501.154 58.810 430219.907 4414499.944 58.810 430219.415 4414497.460 58.805 430218.643 4414493.559 58.794 430217.854 4414489.651 58.794 430217.106 4414485.980 58.785 430216.152 4414481.624 58.785,,0,0,0,0,0
137,430236.431 4414542.719 58.568 430237.221 4414546.640 58.537 430238.004 4414550.575 58.438 430238.788 4414554.485 58.406 430239.237 4414556.692 58.385 430240.040 4414560.648 58.253 430240.836 4414564.574 58.213 430241.625 4414568.495 58.213 430242.389 4414572.413 58.172 430243.164 4414576.337 58.152 430243.970 4414580.203 58.151 430244.704 4414583.585 58.178,,0,0,0,0,0
138,430239.754 4414581.146 58.172 430238.921 4414577.198 58.165 430238.123 4414573.278 58.179 430237.337 4414569.350 58.258 430236.544 4414565.430 58.258 430235.769 4414561.510 58.391 430234.987 4414557.614 58.429 430234.527 4414555.334 58.432 430233.725 4414551.408 58.520 430232.950 4414547.492 58.554 430232.183 4414543.566 58.554 430231.395 4414539.649 58.605 430230.606 4414535.719 58.665 430229.828 4414531.801 58.682 430229.046 4414527.878 58.696 430228.261 4414523.953 58.734 430227.477 4414520.030 58.767 430226.701 4414516.108 58.782 430225.920 4414512.185 58.798 430225.146 4414508.261 58.817 430224.366 4414504.337 58.841 430223.589 4414500.433 58.856 430223.346 4414499.245 58.858 430222.851 4414496.791 58.853 430222.079 4414492.874 58.860 430221.286 4414488.958 58.844 430220.537 4414485.295 58.840 430218.742 4414476.586 58.840,,0,0,0,0,0
139,430240.660 4414545.955 58.483 430241.459 4414549.903 58.398 430242.236 4414553.797 58.366 430242.668 4414555.949 58.331 430243.476 4414559.955 58.258 430244.270 4414563.890 58.182 430245.059 4414567.811 58.182 430245.826 4414571.715 58.135 430246.626 4414575.634 58.122 430247.412 4414579.434 58.149 430248.021 4414582.225 58.171,,0,0,0,0,0
140,430228.250 4414483.754 58.815 430228.971 4414487.405 58.820 430229.767 4414491.341 58.820 430230.545 4414495.292 58.816 430231.032 4414497.681 58.803 430231.261 4414498.823 58.803 430232.058 4414502.810 58.788 430232.835 4414506.734 58.721 430233.610 4414510.657 58.702 430234.394 4414514.578 58.702 430235.177 4414518.508 58.671 430235.962 4414522.431 58.624 430236.749 4414526.341 58.609 430237.537 4414530.262 58.609 430238.330 4414534.200 58.576 430239.085 4414538.099 58.535 430239.871 4414542.033 58.514 430240.660 4414545.955 58.483,,0,0,0,0,0
141,430224.852 4414484.433 58.839 430225.589 4414488.089 58.859 430226.377 4414492.017 58.852 430227.146 4414495.954 58.856 430227.611 4414498.377 58.856 430227.834 4414499.542 58.856 430228.604 4414503.496 58.841 430229.398 4414507.416 58.787 430230.178 4414511.339 58.774 430230.952 4414515.263 58.758 430231.730 4414519.190 58.727 430232.520 4414523.111 58.680 430233.310 4414527.027 58.680 430234.106 4414530.947 58.665 430234.874 4414534.880 58.639 430235.655 4414538.790 58.568 430236.431 4414542.719 58.568,,0,0,0,0,0
